LabVIEW Measurement	
Writer_Version	2
Reader_Version	2
Separator	Tab
Decimal_Separator	.
Multi_Headings	No
X_Columns	No
Time_Pref	Absolute
Operator	bowman-lab
Date	2019/05/06
Time	17:12:14.6689457893371582031
***End_of_Header***	
	
Channels	9									
Samples	1	1	1	1	1	1	1	1	1	
Date	2019/05/06	2019/05/06	2019/05/06	2019/05/06	2019/05/06	2019/05/06	2019/05/06	2019/05/06	2019/05/06	
Time	17:12:14.6689457893371582031	17:12:14.6689457893371582031	17:12:14.6689457893371582031	17:12:14.6689457893371582031	17:12:14.6689457893371582031	17:12:14.6689457893371582031	17:12:14.6689457893371582031	17:12:14.6689457893371582031	17:12:14.6689457893371582031	
X_Dimension	Time	Time	Time	Time	Time	Time	Time	Time	Time	
X0	0.0000000000000000E+0	0.0000000000000000E+0	0.0000000000000000E+0	0.0000000000000000E+0	0.0000000000000000E+0	0.0000000000000000E+0	0.0000000000000000E+0	0.0000000000000000E+0	0.0000000000000000E+0	
Delta_X	1.000000	1.000000	1.000000	1.000000	1.000000	1.000000	1.000000	1.000000	1.000000	
***End_of_Header***										
X_Value	Untitled	Untitled 1	Untitled 2	Untitled 3	Untitled 4	Untitled 5	Untitled 6	Untitled 7	Untitled 8	Comment
	126.716829	0.000000	0.000000	0.000000	0.000000	0.000000	0.000000	0.000000	0.000000
	126.716829	1.072520E-6	5.421750E-7	3.117490E-7	2.085490E-8	4.934030E-12	14.948477	25.997487	2.192990E-6
	126.717049	3.044260E-6	5.057320E-7	2.911630E-7	1.956190E-8	4.662360E-12	14.884188	25.852908	2.074530E-6
	126.717269	2.890060E-6	4.831040E-7	2.805200E-7	1.885080E-8	4.592740E-12	14.881066	25.627772	2.016480E-6
	126.717488	2.803050E-6	4.722460E-7	2.753600E-7	1.852580E-8	4.519900E-12	14.863596	25.491261	1.992180E-6
	126.717708	2.762740E-6	4.688060E-7	2.728880E-7	1.824730E-8	4.335850E-12	14.954980	25.691801	1.979500E-6
	126.717928	2.722760E-6	4.654200E-7	2.673520E-7	1.775120E-8	4.209100E-12	15.061066	26.219073	1.971970E-6
	126.718137	2.699920E-6	4.557450E-7	2.590740E-7	1.740260E-8	4.044740E-12	14.887086	26.188328	1.959070E-6
	126.718356	2.683130E-6	4.503700E-7	2.590740E-7	1.757080E-8	3.996910E-12	14.744576	25.631730	1.939510E-6
	126.718576	2.658260E-6	4.509610E-7	2.592890E-7	1.768810E-8	3.829430E-12	14.658951	25.495163	1.924670E-6
	126.718796	2.635760E-6	4.497250E-7	2.588050E-7	1.762290E-8	3.669310E-12	14.685721	25.519353	1.913710E-6
	126.719005	2.618630E-6	4.498330E-7	2.585370E-7	1.743340E-8	3.590000E-12	14.829982	25.802941	1.911990E-6
	126.719225	2.597460E-6	4.490260E-7	2.545050E-7	1.707960E-8	3.460870E-12	14.901110	26.290194	1.905320E-6
	126.719444	2.579660E-6	4.415010E-7	2.485930E-7	1.693590E-8	3.422690E-12	14.678464	26.068942	1.887050E-6
	126.719664	2.560170E-6	4.347290E-7	2.468190E-7	1.687650E-8	3.246070E-12	14.625011	25.759429	1.859740E-6
	126.719873	2.539350E-6	4.318260E-7	2.462820E-7	1.699770E-8	3.171020E-12	14.489137	25.404967	1.851140E-6
	126.720093	2.525230E-6	4.356960E-7	2.492380E-7	1.708360E-8	3.141440E-12	14.589314	25.503758	1.845340E-6
	126.720313	2.503400E-6	4.384910E-7	2.487540E-7	1.680360E-8	3.080130E-12	14.803614	26.095063	1.842110E-6
	126.720532	2.486610E-6	4.351050E-7	2.432720E-7	1.643970E-8	2.939270E-12	14.797837	26.466724	1.833940E-6
	126.720741	2.475510E-6	4.264510E-7	2.380580E-7	1.635810E-8	2.835290E-12	14.552913	26.069715	1.822120E-6
	126.720961	2.458380E-6	4.359110E-7	2.468190E-7	1.699430E-8	2.843240E-12	14.523634	25.650424	1.809430E-6
	126.721181	2.445620E-6	4.312350E-7	2.428950E-7	1.687770E-8	2.771590E-12	14.391475	25.550579	1.809000E-6
	126.721400	2.430160E-6	4.384380E-7	2.473030E-7	1.703090E-8	2.736540E-12	14.520842	25.743678	1.815240E-6
	126.721609	2.416720E-6	4.462850E-7	2.488080E-7	1.692850E-8	2.728280E-12	14.697581	26.362938	1.798040E-6
	126.721829	2.407310E-6	4.331700E-7	2.381120E-7	1.625990E-8	2.613590E-12	14.644125	26.640385	1.782990E-6
	126.722049	2.394890E-6	4.226890E-7	2.328440E-7	1.618240E-8	2.568430E-12	14.388719	26.120291	1.772240E-6
	126.722269	2.385810E-6	4.319880E-7	2.412830E-7	1.679990E-8	2.554410E-12	14.362169	25.713724	1.761060E-6
	126.722477	2.369360E-6	4.280640E-7	2.378970E-7	1.662240E-8	2.457910E-12	14.311832	25.752238	1.746220E-6
	126.722697	2.362300E-6	4.259680E-7	2.362300E-7	1.646150E-8	2.425240E-12	14.350454	25.876621	1.758910E-6
	126.722917	2.349880E-6	4.353200E-7	2.380580E-7	1.638960E-8	2.414670E-12	14.524943	26.560746	1.741280E-6
	126.723137	2.339460E-6	4.210760E-7	2.275770E-7	1.585350E-8	2.366510E-12	14.355000	26.560444	1.723430E-6
	126.723345	2.330050E-6	4.109180E-7	2.239750E-7	1.572080E-8	2.299370E-12	14.247048	26.138492	1.701720E-6
	126.723565	2.317620E-6	4.090900E-7	2.245670E-7	1.585180E-8	2.270610E-12	14.166656	25.807164	1.692470E-6
	126.723785	2.305530E-6	4.112940E-7	2.269850E-7	1.598490E-8	2.255130E-12	14.199964	25.730158	1.689030E-6
	126.724005	2.294440E-6	4.147880E-7	2.285440E-7	1.591530E-8	2.187140E-12	14.360018	26.062217	1.689890E-6
	126.724213	2.290750E-6	4.158090E-7	2.261790E-7	1.564620E-8	2.166490E-12	14.455842	26.575718	1.690970E-6
	126.724433	2.279320E-6	4.103800E-7	2.216640E-7	1.556010E-8	2.186770E-12	14.245667	26.373866	1.675700E-6
	126.724653	2.276970E-6	4.045750E-7	2.210730E-7	1.560180E-8	2.187080E-12	14.169711	25.931303	1.657430E-6
	126.724873	2.261860E-6	4.058110E-7	2.227390E-7	1.575770E-8	2.058190E-12	14.135248	25.753187	1.651620E-6
	126.725081	2.254130E-6	4.093590E-7	2.252650E-7	1.591420E-8	2.029890E-12	14.154969	25.722876	1.650760E-6
	126.725301	2.246410E-6	4.126910E-7	2.261790E-7	1.569300E-8	2.054500E-12	14.412732	26.297776	1.651840E-6
	126.725521	2.241030E-6	4.111860E-7	2.219870E-7	1.538410E-8	2.014950E-12	14.429638	26.727985	1.649260E-6
	126.725741	2.231280E-6	4.048980E-7	2.178480E-7	1.537840E-8	1.970000E-12	14.165843	26.329007	1.634640E-6
	126.725961	2.221210E-6	4.025330E-7	2.192990E-7	1.551790E-8	1.951860E-12	14.132002	25.939915	1.621310E-6
	126.726169	2.212140E-6	4.056500E-7	2.222020E-7	1.576620E-8	1.916520E-12	14.093567	25.729091	1.620020E-6
	126.726389	2.207100E-6	4.100580E-7	2.247820E-7	1.582560E-8	1.963660E-12	14.203695	25.911056	1.619800E-6
	126.726609	2.203740E-6	4.133360E-7	2.255340E-7	1.564660E-8	1.923350E-12	14.414250	26.416985	1.622380E-6
	126.726829	2.194000E-6	4.119390E-7	2.216100E-7	1.538350E-8	1.893570E-12	14.405694	26.777976	1.619160E-6
	126.727037	2.188630E-6	4.066710E-7	2.185470E-7	1.551250E-8	1.873110E-12	14.088445	26.215697	1.603890E-6
	126.727257	2.178540E-6	4.051130E-7	2.197830E-7	1.560260E-8	1.861410E-12	14.086306	25.964455	1.592710E-6
	126.727477	2.172490E-6	4.075850E-7	2.225240E-7	1.576920E-8	1.845530E-12	14.111306	25.846904	1.591850E-6
	126.727697	2.172500E-6	4.120460E-7	2.248350E-7	1.583130E-8	1.870980E-12	14.201929	26.027300	1.593570E-6
	126.727905	2.159060E-6	4.137130E-7	2.232230E-7	1.551450E-8	1.857140E-12	14.388024	26.666215	1.594000E-6
	126.728125	2.156710E-6	4.092510E-7	2.184930E-7	1.531600E-8	1.843350E-12	14.265670	26.720488	1.587340E-6
	126.728345	2.145960E-6	4.040910E-7	2.172030E-7	1.545540E-8	1.782810E-12	14.053535	26.145619	1.571000E-6
	126.728565	2.144960E-6	4.039840E-7	2.189770E-7	1.559340E-8	1.775320E-12	14.042928	25.907371	1.565410E-6
	126.728773	2.140920E-6	4.080690E-7	2.222550E-7	1.574300E-8	1.803910E-12	14.117703	25.920663	1.565410E-6
	126.728993	2.133870E-6	4.127450E-7	2.245670E-7	1.574840E-8	1.783630E-12	14.259671	26.208694	1.567560E-6
	126.729213	2.121430E-6	4.131750E-7	2.216100E-7	1.542920E-8	1.748830E-12	14.363026	26.778770	1.567340E-6
	126.729433	2.115390E-6	4.068330E-7	2.169340E-7	1.532100E-8	1.798310E-12	14.159259	26.553946	1.557240E-6
	126.729641	2.112370E-6	4.031240E-7	2.174720E-7	1.545540E-8	1.710720E-12	14.070940	26.083052	1.543690E-6
	126.729861	2.111020E-6	4.041450E-7	2.181700E-7	1.556660E-8	1.714870E-12	14.015263	25.962317	1.539180E-6
	126.730081	2.100620E-6	4.071550E-7	2.212880E-7	1.572210E-8	1.675190E-12	14.074965	25.896986	1.540470E-6
	126.730301	2.101280E-6	4.108640E-7	2.221480E-7	1.551760E-8	1.760320E-12	14.315874	26.477290	1.544550E-6
	126.730521	2.092210E-6	4.097350E-7	2.186000E-7	1.523770E-8	1.711350E-12	14.345997	26.889557	1.545840E-6
	126.730729	2.093890E-6	4.035540E-7	2.149990E-7	1.526570E-8	1.678910E-12	14.083796	26.435342	1.535740E-6
	126.730949	2.089520E-6	4.022640E-7	2.165040E-7	1.541130E-8	1.706820E-12	14.048393	26.101886	1.524990E-6
	126.731169	2.085820E-6	4.038230E-7	2.183850E-7	1.556490E-8	1.659710E-12	14.030607	25.944465	1.524560E-6
	126.731389	2.076430E-6	4.076390E-7	2.209120E-7	1.571710E-8	1.617290E-12	14.055519	25.936019	1.526710E-6
	126.731597	2.074410E-6	4.108640E-7	2.220400E-7	1.550280E-8	1.671800E-12	14.322574	26.502567	1.529070E-6
	126.731817	2.068700E-6	4.080150E-7	2.173640E-7	1.522090E-8	1.656160E-12	14.280627	26.806234	1.527350E-6
	126.732037	2.071380E-6	4.017260E-7	2.140850E-7	1.522150E-8	1.632440E-12	14.064645	26.392011	1.514880E-6
	126.732257	2.064330E-6	4.010810E-7	2.161280E-7	1.540630E-8	1.591990E-12	14.028547	26.033571	1.508430E-6
	126.732465	2.059290E-6	4.043060E-7	2.195680E-7	1.567010E-8	1.650160E-12	14.011908	25.801112	1.511010E-6
	126.732685	2.051900E-6	4.085530E-7	2.216640E-7	1.568180E-8	1.594470E-12	14.135112	26.052685	1.512520E-6
	126.732905	2.052910E-6	4.104880E-7	2.206430E-7	1.540830E-8	1.575080E-12	14.319750	26.640707	1.514880E-6
	126.733125	2.049210E-6	4.050590E-7	2.149990E-7	1.510100E-8	1.625430E-12	14.237401	26.823323	1.508860E-6
	126.733333	2.044500E-6	4.002750E-7	2.147840E-7	1.527330E-8	1.576910E-12	14.062711	26.207499	1.494240E-6
	126.733553	2.034100E-6	3.981250E-7	2.148380E-7	1.530890E-8	1.547930E-12	14.033536	26.006114	1.485640E-6
	126.733773	2.026700E-6	3.996840E-7	2.165580E-7	1.546520E-8	1.597540E-12	14.002923	25.844089	1.486720E-6
	126.733993	2.026370E-6	4.033390E-7	2.184390E-7	1.536800E-8	1.580890E-12	14.213886	26.245380	1.490590E-6
	126.734201	2.020310E-6	4.053810E-7	2.166120E-7	1.513930E-8	1.555820E-12	14.307927	26.776733	1.492310E-6
	126.734421	2.029400E-6	3.996300E-7	2.115050E-7	1.499620E-8	1.560710E-12	14.103906	26.648751	1.483060E-6
	126.734641	2.024690E-6	3.955990E-7	2.129030E-7	1.520250E-8	1.606380E-12	14.004473	26.021970	1.470590E-6
	126.734861	2.024010E-6	3.979100E-7	2.154830E-7	1.535690E-8	1.564620E-12	14.031673	25.910828	1.468870E-6
	126.735069	2.015950E-6	4.016190E-7	2.178480E-7	1.548470E-8	1.519420E-12	14.068597	25.936505	1.471020E-6
	126.735289	2.012930E-6	4.049510E-7	2.192450E-7	1.541570E-8	1.565530E-12	14.222189	26.268739	1.476180E-6
	126.735509	2.015620E-6	4.055430E-7	2.169340E-7	1.514100E-8	1.508310E-12	14.327587	26.784426	1.478330E-6
	126.735729	2.009560E-6	4.002750E-7	2.132250E-7	1.511680E-8	1.518730E-12	14.105168	26.478818	1.468870E-6
	126.735938	2.003190E-6	3.972650E-7	2.135480E-7	1.523440E-8	1.528310E-12	14.017487	26.076839	1.456400E-6
	126.736157	1.992770E-6	3.980710E-7	2.151070E-7	1.534680E-8	1.521280E-12	14.016407	25.938372	1.454680E-6
	126.736377	1.987050E-6	4.015650E-7	2.180090E-7	1.547420E-8	1.543080E-12	14.088547	25.950615	1.454470E-6
	126.736597	1.984380E-6	4.039840E-7	2.178480E-7	1.519190E-8	1.531400E-12	14.339747	26.592066	1.456620E-6
	126.736817	1.974640E-6	4.010280E-7	2.131720E-7	1.492930E-8	1.495020E-12	14.278767	26.861809	1.455760E-6
	126.737025	1.974640E-6	3.949000E-7	2.106450E-7	1.496500E-8	1.510370E-12	14.075844	26.388239	1.442000E-6
	126.737245	1.965230E-6	3.942550E-7	2.123120E-7	1.509640E-8	1.506510E-12	14.063750	26.115829	1.430820E-6
	126.737465	1.959510E-6	3.951690E-7	2.141930E-7	1.529380E-8	1.530870E-12	14.005218	25.838510	1.431250E-6
	126.737685	1.949770E-6	3.983940E-7	2.159670E-7	1.525220E-8	1.438740E-12	14.159728	26.120429	1.432750E-6
	126.737894	1.941030E-6	4.010280E-7	2.154830E-7	1.501900E-8	1.488380E-12	14.347360	26.701378	1.435760E-6
	126.738113	1.939700E-6	3.963510E-7	2.102150E-7	1.473750E-8	1.509480E-12	14.263953	26.894046	1.429100E-6
	126.738333	1.933650E-6	3.897940E-7	2.079580E-7	1.483760E-8	1.466920E-12	14.015609	26.270691	1.415550E-6
	126.738553	1.926930E-6	3.899550E-7	2.103770E-7	1.501600E-8	1.497190E-12	14.010189	25.969299	1.407810E-6
	126.738762	1.920540E-6	3.930190E-7	2.127950E-7	1.517180E-8	1.480440E-12	14.025692	25.904573	1.409320E-6
	126.738981	1.919870E-6	3.960290E-7	2.144080E-7	1.508990E-8	1.480160E-12	14.208709	26.244640	1.411680E-6
	126.739201	1.911470E-6	3.968890E-7	2.122580E-7	1.477520E-8	1.469070E-12	14.365829	26.861836	1.413620E-6
	126.739421	1.906770E-6	3.914600E-7	2.074740E-7	1.464990E-8	1.444560E-12	14.162144	26.721002	1.407170E-6
	126.739630	1.907450E-6	3.863000E-7	2.071520E-7	1.474920E-8	1.444030E-12	14.044965	26.191251	1.394270E-6
	126.739850	1.897370E-6	3.882350E-7	2.097320E-7	1.495320E-8	1.464930E-12	14.025894	25.963339	1.392120E-6
	126.740069	1.892330E-6	3.924280E-7	2.124730E-7	1.508490E-8	1.451890E-12	14.085145	26.014624	1.397490E-6
	126.740289	1.887960E-6	3.975880E-7	2.148380E-7	1.509360E-8	1.438460E-12	14.233715	26.341496	1.398140E-6
	126.740498	1.885950E-6	3.959210E-7	2.111290E-7	1.471330E-8	1.422880E-12	14.349534	26.909055	1.397920E-6
	126.740718	1.880560E-6	3.899010E-7	2.068290E-7	1.468030E-8	1.438720E-12	14.088881	26.559471	1.386960E-6
	126.740938	1.875530E-6	3.857090E-7	2.068830E-7	1.470390E-8	1.429320E-12	14.069941	26.231748	1.375780E-6
	126.741157	1.866800E-6	3.873210E-7	2.090870E-7	1.491290E-8	1.452210E-12	14.020546	25.972212	1.374490E-6
	126.741366	1.864110E-6	3.909760E-7	2.117740E-7	1.503510E-8	1.463530E-12	14.085307	26.004217	1.377280E-6
	126.741586	1.863770E-6	3.940400E-7	2.122040E-7	1.481300E-8	1.479390E-12	14.325525	26.600959	1.380080E-6
	126.741806	1.856720E-6	3.909230E-7	2.076350E-7	1.450440E-8	1.422790E-12	14.315311	26.952028	1.376850E-6
	126.742025	1.855040E-6	3.842040E-7	2.039800E-7	1.452450E-8	1.395120E-12	14.043857	26.452133	1.364380E-6
	126.742245	1.848990E-6	3.826990E-7	2.053780E-7	1.463910E-8	1.418210E-12	14.029414	26.142249	1.354490E-6
	126.742454	1.842940E-6	3.843650E-7	2.082800E-7	1.479460E-8	1.421890E-12	14.078110	25.980087	1.357070E-6
	126.742674	1.842950E-6	3.894180E-7	2.105380E-7	1.487840E-8	1.383400E-12	14.150581	26.173379	1.359010E-6
	126.742894	1.832530E-6	3.909230E-7	2.090330E-7	1.455110E-8	1.429980E-12	14.365443	26.865529	1.362230E-6
	126.743113	1.831520E-6	3.863540E-7	2.046250E-7	1.433710E-8	1.388120E-12	14.272412	26.947849	1.358790E-6
	126.743322	1.832190E-6	3.814630E-7	2.027980E-7	1.444860E-8	1.413830E-12	14.035824	26.401381	1.345250E-6
	126.743542	1.826830E-6	3.801730E-7	2.038190E-7	1.455880E-8	1.384600E-12	13.999712	26.112935	1.340090E-6
	126.743762	1.826150E-6	3.827530E-7	2.060770E-7	1.473520E-8	1.408040E-12	13.985355	25.975419	1.343960E-6
	126.743981	1.821780E-6	3.873210E-7	2.087100E-7	1.468170E-8	1.406480E-12	14.215656	26.381209	1.348690E-6
	126.744190	1.822120E-6	3.884500E-7	2.068290E-7	1.442580E-8	1.406990E-12	14.337437	26.927449	1.352130E-6
	126.744410	1.817750E-6	3.833440E-7	2.024750E-7	1.425110E-8	1.397820E-12	14.207675	26.899257	1.346970E-6
	126.744630	1.813380E-6	3.786140E-7	2.023140E-7	1.438150E-8	1.401570E-12	14.067656	26.326461	1.337720E-6
	126.744850	1.810700E-6	3.804410E-7	2.041420E-7	1.453760E-8	1.390300E-12	14.042345	26.169450	1.335790E-6
	126.745058	1.804320E-6	3.833980E-7	2.067220E-7	1.467070E-8	1.388080E-12	14.090807	26.133586	1.338580E-6
	126.745278	1.798600E-6	3.868380E-7	2.079040E-7	1.462330E-8	1.395690E-12	14.217311	26.453536	1.342020E-6
	126.745498	1.800280E-6	3.856010E-7	2.046790E-7	1.427730E-8	1.369880E-12	14.335974	27.007978	1.343310E-6
	126.745718	1.799940E-6	3.797430E-7	2.008630E-7	1.421240E-8	1.404190E-12	14.132940	26.719133	1.335570E-6
	126.745926	1.795240E-6	3.763560E-7	2.009700E-7	1.428460E-8	1.317770E-12	14.068997	26.346975	1.325680E-6
	126.746146	1.787850E-6	3.772160E-7	2.026900E-7	1.443290E-8	1.337500E-12	14.043609	26.135842	1.325250E-6
	126.746366	1.787850E-6	3.802260E-7	2.050550E-7	1.454240E-8	1.351180E-12	14.100492	26.146028	1.328480E-6
	126.746586	1.782820E-6	3.831830E-7	2.054850E-7	1.432430E-8	1.375030E-12	14.345204	26.750557	1.333420E-6
	126.746794	1.780130E-6	3.802800E-7	2.008090E-7	1.405820E-8	1.331590E-12	14.284119	27.050405	1.335140E-6
	126.747014	1.782820E-6	3.743680E-7	1.982830E-7	1.409120E-8	1.353800E-12	14.071406	26.567503	1.323100E-6
	126.747234	1.781800E-6	3.727010E-7	1.994650E-7	1.420840E-8	1.348500E-12	14.038527	26.231032	1.313430E-6
	126.747454	1.772050E-6	3.735610E-7	2.014540E-7	1.435760E-8	1.357420E-12	14.031175	26.018346	1.316650E-6
	126.747662	1.771730E-6	3.779150E-7	2.038730E-7	1.440050E-8	1.314080E-12	14.157356	26.243186	1.321810E-6
	126.747882	1.769710E-6	3.805490E-7	2.036580E-7	1.416410E-8	1.364320E-12	14.378464	26.867150	1.326970E-6
	126.748102	1.764340E-6	3.766250E-7	1.987670E-7	1.391110E-8	1.314930E-12	14.288374	27.073704	1.325250E-6
	126.748322	1.760300E-6	3.708200E-7	1.967780E-7	1.402100E-8	1.351340E-12	14.034520	26.447472	1.314500E-6
	126.748530	1.761980E-6	3.709280E-7	1.991970E-7	1.412450E-8	1.331820E-12	14.102942	26.261319	1.309340E-6
	126.748750	1.755270E-6	3.722710E-7	2.008090E-7	1.427390E-8	1.318680E-12	14.068264	26.080539	1.313430E-6
	126.748970	1.755260E-6	3.766790E-7	2.036040E-7	1.432370E-8	1.303540E-12	14.214484	26.297605	1.319450E-6
	126.749190	1.754600E-6	3.799040E-7	2.028520E-7	1.411370E-8	1.292380E-12	14.372702	26.917392	1.322670E-6
	126.749410	1.754600E-6	3.750130E-7	1.978530E-7	1.394460E-8	1.362590E-12	14.188503	26.893063	1.318590E-6
	126.749618	1.746530E-6	3.688310E-7	1.968850E-7	1.393500E-8	1.317990E-12	14.128812	26.467958	1.306760E-6
	126.749838	1.742840E-6	3.702290E-7	1.989820E-7	1.413620E-8	1.345370E-12	14.076060	26.190136	1.303750E-6
	126.750058	1.740830E-6	3.725940E-7	2.006480E-7	1.429000E-8	1.295150E-12	14.041148	26.073758	1.304400E-6
	126.750278	1.732750E-6	3.751740E-7	2.022070E-7	1.415200E-8	1.299830E-12	14.288228	26.510317	1.308700E-6
	126.750486	1.727060E-6	3.757650E-7	1.995730E-7	1.385330E-8	1.308210E-12	14.406170	27.124584	1.311490E-6
	126.750706	1.725700E-6	3.692080E-7	1.950580E-7	1.377840E-8	1.350160E-12	14.156796	26.796145	1.301600E-6
	126.750926	1.724370E-6	3.652840E-7	1.953270E-7	1.383490E-8	1.315480E-12	14.118425	26.403082	1.290420E-6
	126.751146	1.721340E-6	3.671110E-7	1.975300E-7	1.408720E-8	1.327740E-12	14.021949	26.059898	1.289990E-6
	126.751354	1.717970E-6	3.700680E-7	1.996800E-7	1.413320E-8	1.320140E-12	14.128435	26.184304	1.292790E-6
	126.751574	1.714620E-6	3.733460E-7	2.007020E-7	1.408350E-8	1.341250E-12	14.250861	26.509461	1.316440E-6
	126.751794	1.714620E-6	3.832900E-7	2.030670E-7	1.414730E-8	1.351120E-12	14.353764	27.092802	1.307840E-6
	126.752014	1.715290E-6	3.700140E-7	1.953800E-7	1.386140E-8	1.301390E-12	14.095257	26.693840	1.290420E-6
	126.752222	1.705880E-6	3.665200E-7	1.961330E-7	1.394810E-8	1.296900E-12	14.061628	26.277414	1.277950E-6
	126.752442	1.699840E-6	3.664130E-7	1.974770E-7	1.403100E-8	1.273690E-12	14.074335	26.114532	1.284830E-6
	126.752662	1.698160E-6	3.720030E-7	2.007550E-7	1.414490E-8	1.249920E-12	14.192748	26.299444	1.285050E-6
	126.752882	1.696820E-6	3.730780E-7	2.002180E-7	1.387750E-8	1.263260E-12	14.427527	26.883661	1.288060E-6
	126.753090	1.692450E-6	3.702830E-7	1.957030E-7	1.367050E-8	1.313270E-12	14.315716	27.086281	1.286770E-6
	126.753310	1.695800E-6	3.641010E-7	1.930690E-7	1.369780E-8	1.297970E-12	14.094891	26.580984	1.276450E-6
	126.753530	1.692770E-6	3.645850E-7	1.957030E-7	1.385640E-8	1.286600E-12	14.123654	26.311668	1.270860E-6
	126.753750	1.682700E-6	3.663590E-7	1.975300E-7	1.401430E-8	1.258860E-12	14.094889	26.141798	1.273010E-6
	126.753958	1.681700E-6	3.702830E-7	1.997340E-7	1.402270E-8	1.284760E-12	14.243619	26.405970	1.276450E-6
	126.754178	1.679000E-6	3.725940E-7	1.986590E-7	1.374140E-8	1.286710E-12	14.456969	27.114704	1.279460E-6
	126.754398	1.676320E-6	3.671650E-7	1.938220E-7	1.357370E-8	1.310880E-12	14.279231	27.049736	1.274300E-6
	126.754618	1.673290E-6	3.614140E-7	1.925850E-7	1.369040E-8	1.272150E-12	14.067157	26.399083	1.261830E-6
	126.754826	1.672960E-6	3.624890E-7	1.946820E-7	1.384060E-8	1.259720E-12	14.066009	26.190266	1.259680E-6
	126.755046	1.665910E-6	3.654990E-7	1.970470E-7	1.396820E-8	1.267780E-12	14.106828	26.166507	1.262470E-6
	126.755266	1.663550E-6	3.691540E-7	1.988740E-7	1.387340E-8	1.254600E-12	14.334914	26.608762	1.266130E-6
	126.755486	1.664570E-6	3.690460E-7	1.957030E-7	1.356980E-8	1.254270E-12	14.421952	27.196127	1.268280E-6
	126.755706	1.662880E-6	3.629730E-7	1.913490E-7	1.352750E-8	1.248340E-12	14.145186	26.832231	1.260320E-6
	126.755914	1.660200E-6	3.590490E-7	1.921550E-7	1.360230E-8	1.238220E-12	14.126655	26.396198	1.248930E-6
	126.756134	1.653140E-6	3.609840E-7	1.936600E-7	1.377710E-8	1.272970E-12	14.056659	26.201741	1.249360E-6
	126.756354	1.651460E-6	3.643700E-7	1.965630E-7	1.386540E-8	1.185290E-12	14.176511	26.279083	1.254730E-6
	126.756574	1.647760E-6	3.691540E-7	1.986050E-7	1.384230E-8	1.240540E-12	14.347688	26.668545	1.262690E-6
	126.756782	1.648110E-6	3.671650E-7	1.937680E-7	1.344690E-8	1.247430E-12	14.409864	27.304806	1.261830E-6
	126.757002	1.656840E-6	3.601780E-7	1.903820E-7	1.347810E-8	1.250600E-12	14.125285	26.723203	1.251940E-6
	126.757222	1.652470E-6	3.594250E-7	1.921550E-7	1.362080E-8	1.267820E-12	14.107468	26.387951	1.245490E-6
	126.757442	1.646760E-6	3.613060E-7	1.945200E-7	1.374320E-8	1.281730E-12	14.153909	26.289802	1.248070E-6
	126.757650	1.643400E-6	3.649610E-7	1.966170E-7	1.387980E-8	1.284530E-12	14.165694	26.294399	1.253010E-6
	126.757870	1.648100E-6	3.677030E-7	1.971000E-7	1.366430E-8	1.283110E-12	14.424449	26.909758	1.258390E-6
	126.758090	1.646420E-6	3.654990E-7	1.933380E-7	1.346230E-8	1.268930E-12	14.361439	27.149818	1.258820E-6
	126.758310	1.639700E-6	3.600160E-7	1.908120E-7	1.351870E-8	1.265450E-12	14.114671	26.630963	1.250000E-6
	126.758519	1.639700E-6	3.607690E-7	1.930690E-7	1.364530E-8	1.278850E-12	14.149121	26.439067	1.242910E-6
	126.758738	1.636350E-6	3.613060E-7	1.944670E-7	1.380870E-8	1.294910E-12	14.082933	26.165099	1.246780E-6
	126.758958	1.636350E-6	3.648000E-7	1.962940E-7	1.378510E-8	1.306560E-12	14.239578	26.463355	1.250220E-6
	126.759178	1.633990E-6	3.667890E-7	1.953270E-7	1.350460E-8	1.288940E-12	14.463738	27.160301	1.255380E-6
	126.759387	1.635340E-6	3.618980E-7	1.907040E-7	1.337160E-8	1.260100E-12	14.261868	27.064674	1.252580E-6
	126.759606	1.633990E-6	3.568990E-7	1.902740E-7	1.346230E-8	1.268110E-12	14.133840	26.510997	1.241400E-6
	126.759826	1.626260E-6	3.576510E-7	1.919940E-7	1.359960E-8	1.220240E-12	14.117621	26.298641	1.238820E-6
	126.760046	1.630290E-6	3.602310E-7	1.937680E-7	1.374150E-8	1.309090E-12	14.100935	26.214824	1.242260E-6
	126.760255	1.625260E-6	3.637790E-7	1.958100E-7	1.368330E-8	1.254970E-12	14.310144	26.585619	1.248500E-6
	126.760475	1.628620E-6	3.643700E-7	1.928540E-7	1.339080E-8	1.276180E-12	14.401977	27.210473	1.251510E-6
	126.760694	1.626600E-6	3.577590E-7	1.885000E-7	1.329030E-8	1.262390E-12	14.183277	26.918805	1.243980E-6
	126.760914	1.617530E-6	3.537280E-7	1.890380E-7	1.334810E-8	1.260670E-12	14.162165	26.500251	1.231940E-6
	126.761134	1.614850E-6	3.544260E-7	1.900050E-7	1.355880E-8	1.243020E-12	14.013408	26.139924	1.232590E-6
	126.761343	1.616860E-6	3.578660E-7	1.926390E-7	1.362150E-8	1.185110E-12	14.142275	26.272143	1.237960E-6
	126.761562	1.620220E-6	3.614680E-7	1.938220E-7	1.347650E-8	1.268660E-12	14.382221	26.822098	1.243550E-6
	126.761782	1.615520E-6	3.605540E-7	1.905970E-7	1.318610E-8	1.237280E-12	14.454388	27.343490	1.246990E-6
	126.762002	1.615180E-6	3.549100E-7	1.873720E-7	1.322840E-8	1.230630E-12	14.164374	26.829397	1.240110E-6
	126.762211	1.615180E-6	3.538350E-7	1.891450E-7	1.336960E-8	1.253120E-12	14.147394	26.465638	1.231730E-6
	126.762431	1.607790E-6	3.562540E-7	1.909190E-7	1.355160E-8	1.243940E-12	14.088300	26.288704	1.233880E-6
	126.762650	1.607780E-6	3.588340E-7	1.931230E-7	1.364000E-8	1.239570E-12	14.158578	26.307478	1.238820E-6
	126.762870	1.602090E-6	3.622740E-7	1.942520E-7	1.346590E-8	1.247540E-12	14.425475	26.903066	1.242690E-6
	126.763079	1.602080E-6	3.599090E-7	1.897370E-7	1.320250E-8	1.226500E-12	14.371293	27.260670	1.241400E-6
	126.763299	1.597370E-6	3.532980E-7	1.865650E-7	1.327270E-8	1.283270E-12	14.056296	26.618397	1.228930E-6
	126.763519	1.595700E-6	3.525990E-7	1.887150E-7	1.340110E-8	1.204570E-12	14.082053	26.311198	1.222050E-6
	126.763738	1.597040E-6	3.539960E-7	1.907580E-7	1.349250E-8	1.222870E-12	14.138077	26.236502	1.225490E-6
	126.763947	1.588650E-6	3.575440E-7	1.925850E-7	1.352980E-8	1.253460E-12	14.234135	26.426407	1.232160E-6
	126.764167	1.586280E-6	3.614680E-7	1.923700E-7	1.331450E-8	1.235120E-12	14.448158	27.148447	1.233880E-6
	126.764387	1.587960E-6	3.560390E-7	1.872640E-7	1.309010E-8	1.252250E-12	14.305773	27.199105	1.230440E-6
	126.764606	1.589650E-6	3.505030E-7	1.862430E-7	1.317170E-8	1.208870E-12	14.139633	26.610308	1.217540E-6
	126.764815	1.584950E-6	3.510940E-7	1.878020E-7	1.332060E-8	1.255840E-12	14.098614	26.357221	1.213880E-6
	126.765035	1.578900E-6	3.535660E-7	1.901670E-7	1.345180E-8	1.254880E-12	14.136918	26.283917	1.217320E-6
	126.765255	1.575880E-6	3.566840E-7	1.918330E-7	1.337500E-8	1.227600E-12	14.342654	26.667963	1.222700E-6
	126.765475	1.570840E-6	3.579200E-7	1.902200E-7	1.311460E-8	1.241770E-12	14.504445	27.291721	1.225710E-6
	126.765683	1.573520E-6	3.523300E-7	1.855440E-7	1.303100E-8	1.208170E-12	14.238662	27.037833	1.218400E-6
	126.765903	1.572850E-6	3.479760E-7	1.857050E-7	1.315300E-8	1.226560E-12	14.118832	26.456018	1.207650E-6
	126.766123	1.572180E-6	3.499650E-7	1.876400E-7	1.331580E-8	1.233700E-12	14.091530	26.281936	1.208290E-6
	126.766343	1.568150E-6	3.536740E-7	1.901670E-7	1.340880E-8	1.204000E-12	14.182253	26.376260	1.212160E-6
	126.766563	1.568150E-6	3.571140E-7	1.914570E-7	1.332250E-8	1.268400E-12	14.370951	26.805329	1.218610E-6
	126.766771	1.566470E-6	3.572750E-7	1.889840E-7	1.311290E-8	1.230440E-12	14.412068	27.246071	1.221620E-6
	126.766991	1.568150E-6	3.526530E-7	1.861350E-7	1.313610E-8	1.212760E-12	14.169731	26.846096	1.212810E-6
	126.767211	1.564790E-6	3.505560E-7	1.868880E-7	1.324390E-8	1.234910E-12	14.111251	26.469242	1.203560E-6
	126.767431	1.560760E-6	3.519000E-7	1.886620E-7	1.340520E-8	1.249300E-12	14.073792	26.251007	1.204850E-6
	126.767639	1.555710E-6	3.549640E-7	1.907580E-7	1.338400E-8	1.261190E-12	14.252690	26.521518	1.206790E-6
	126.767859	1.554710E-6	3.569530E-7	1.904890E-7	1.323210E-8	1.242650E-12	14.395976	26.976293	1.211730E-6
	126.768079	1.551020E-6	3.544260E-7	1.868880E-7	1.298180E-8	1.250160E-12	14.396155	27.301761	1.211090E-6
	126.768299	1.555710E-6	3.495350E-7	1.845230E-7	1.306050E-8	1.228380E-12	14.128326	26.762758	1.200770E-6
	126.768507	1.548330E-6	3.486750E-7	1.857590E-7	1.316930E-8	1.253510E-12	14.105457	26.476350	1.193030E-6
	126.768727	1.552020E-6	3.502880E-7	1.883390E-7	1.333390E-8	1.248540E-12	14.124825	26.270484	1.196900E-6
	126.768947	1.545980E-6	3.548030E-7	1.905430E-7	1.332850E-8	1.218770E-12	14.295907	26.619875	1.202060E-6
	126.769167	1.545640E-6	3.567910E-7	1.894140E-7	1.311330E-8	1.259790E-12	14.444419	27.208330	1.207650E-6
	126.769375	1.539930E-6	3.522760E-7	1.852220E-7	1.292780E-8	1.252950E-12	14.327418	27.249493	1.203780E-6
	126.769595	1.549340E-6	3.476000E-7	1.845230E-7	1.302260E-8	1.237120E-12	14.169444	26.692058	1.193030E-6
	126.769815	1.545640E-6	3.477610E-7	1.860280E-7	1.319520E-8	1.196810E-12	14.098157	26.355114	1.190230E-6
	126.770035	1.538930E-6	3.503950E-7	1.882320E-7	1.333030E-8	1.183320E-12	14.120612	26.285605	1.194100E-6
	126.770243	1.541610E-6	3.537810E-7	1.897900E-7	1.321170E-8	1.241890E-12	14.365297	26.777856	1.198830E-6
	126.770463	1.542620E-6	3.542650E-7	1.875870E-7	1.294560E-8	1.209030E-12	14.490406	27.365669	1.203780E-6
	126.770683	1.540940E-6	3.494810E-7	1.837700E-7	1.293520E-8	1.219480E-12	14.206970	27.017827	1.199050E-6
	126.770903	1.538930E-6	3.455580E-7	1.837700E-7	1.301010E-8	1.252220E-12	14.125180	26.560749	1.190450E-6
	126.771111	1.534560E-6	3.478690E-7	1.860820E-7	1.316090E-8	1.213240E-12	14.139003	26.432007	1.191520E-6
	126.771331	1.531870E-6	3.520610E-7	1.884470E-7	1.334040E-8	1.192430E-12	14.126038	26.390588	1.195390E-6
	126.771551	1.533880E-6	3.549100E-7	1.897900E-7	1.322450E-8	1.189720E-12	14.351393	26.837310	1.201200E-6
	126.771771	1.533540E-6	3.547490E-7	1.873180E-7	1.293680E-8	1.228700E-12	14.479469	27.421696	1.203780E-6
	126.771979	1.534220E-6	3.489440E-7	1.835550E-7	1.293790E-8	1.239320E-12	14.187387	26.970683	1.196900E-6
	126.772199	1.532870E-6	3.466860E-7	1.845230E-7	1.303320E-8	1.192330E-12	14.157920	26.600221	1.189160E-6
	126.772419	1.530180E-6	3.484060E-7	1.864580E-7	1.321360E-8	1.224010E-12	14.111067	26.367228	1.190660E-6
	126.772639	1.531870E-6	3.517930E-7	1.887150E-7	1.326650E-8	1.202460E-12	14.224927	26.517393	1.194750E-6
	126.772847	1.528170E-6	3.536200E-7	1.889300E-7	1.308870E-8	1.211750E-12	14.434589	27.017198	1.199480E-6
	126.773067	1.522790E-6	3.514160E-7	1.850070E-7	1.285120E-8	1.196780E-12	14.396088	27.344995	1.199910E-6
	126.773287	1.526160E-6	3.452890E-7	1.819970E-7	1.283100E-8	1.191820E-12	14.184163	26.910529	1.188300E-6
	126.773507	1.527490E-6	3.435150E-7	1.829640E-7	1.297980E-8	1.222460E-12	14.096057	26.465354	1.180340E-6
	126.773715	1.521120E-6	3.451280E-7	1.853830E-7	1.314180E-8	1.178260E-12	14.106363	26.261851	1.187440E-6
	126.773935	1.519100E-6	3.517930E-7	1.891450E-7	1.330570E-8	1.213770E-12	14.215336	26.439270	1.193240E-6
	126.774155	1.517420E-6	3.546950E-7	1.885540E-7	1.301650E-8	1.211260E-12	14.485768	27.249645	1.197330E-6
	126.774375	1.519770E-6	3.501260E-7	1.837700E-7	1.282370E-8	1.209360E-12	14.330497	27.303040	1.195390E-6
	126.774583	1.518430E-6	3.452890E-7	1.826420E-7	1.297930E-8	1.193370E-12	14.071791	26.603053	1.185070E-6
	126.774803	1.510020E-6	3.465790E-7	1.847920E-7	1.305110E-8	1.200590E-12	14.159113	26.555539	1.182060E-6
	126.775023	1.507000E-6	3.488360E-7	1.873720E-7	1.322210E-8	1.223250E-12	14.171123	26.382798	1.204420E-6
	126.775243	1.514070E-6	3.631340E-7	1.950580E-7	1.360630E-8	1.192650E-12	14.335859	26.688666	1.201630E-6
	126.775451	1.509690E-6	3.613600E-7	1.912950E-7	1.316130E-8	1.211350E-12	14.534658	27.456254	1.200340E-6
	126.775671	1.504990E-6	3.539960E-7	1.859200E-7	1.300470E-8	1.226590E-12	14.296370	27.220620	1.195390E-6
	126.775891	1.507340E-6	3.488900E-7	1.857050E-7	1.306880E-8	1.234180E-12	14.209797	26.696407	1.185070E-6
	126.776111	1.500630E-6	3.502880E-7	1.873720E-7	1.320630E-8	1.185850E-12	14.188077	26.524310	1.180130E-6
	126.776331	1.501960E-6	3.505560E-7	1.878020E-7	1.323720E-8	1.226840E-12	14.187441	26.482640	1.179270E-6
	126.776539	1.499280E-6	3.518460E-7	1.882850E-7	1.305310E-8	1.239110E-12	14.424543	26.954976	1.183140E-6
	126.776759	1.495250E-6	3.514160E-7	1.854900E-7	1.283650E-8	1.255380E-12	14.450201	27.376310	1.185290E-6
	126.776979	1.496930E-6	3.453960E-7	1.815130E-7	1.278850E-8	1.250120E-12	14.193455	27.008328	1.177550E-6
	126.777199	1.496930E-6	3.423860E-7	1.822120E-7	1.285560E-8	1.173330E-12	14.173745	26.633218	1.166370E-6
	126.777407	1.490210E-6	3.437300E-7	1.840390E-7	1.303430E-8	1.192550E-12	14.119592	26.371190	1.167010E-6
	126.777627	1.487520E-6	3.467400E-7	1.859200E-7	1.307240E-8	1.217620E-12	14.222331	26.524586	1.171100E-6
	126.777847	1.487190E-6	3.492130E-7	1.866730E-7	1.292240E-8	1.188470E-12	14.445691	27.023850	1.176690E-6
	126.778067	1.481820E-6	3.479760E-7	1.832330E-7	1.270010E-8	1.197230E-12	14.427682	27.399469	1.177760E-6
	126.778275	1.486850E-6	3.423330E-7	1.800080E-7	1.270580E-8	1.183790E-12	14.167388	26.943050	1.166580E-6
	126.778495	1.481480E-6	3.411500E-7	1.816740E-7	1.284540E-8	1.217560E-12	14.143117	26.558145	1.159060E-6
	126.778715	1.481470E-6	3.421180E-7	1.837700E-7	1.298690E-8	1.195250E-12	14.150413	26.343315	1.162070E-6
	126.778935	1.478780E-6	3.459880E-7	1.854900E-7	1.300880E-8	1.189270E-12	14.258809	26.596458	1.167660E-6
	126.779144	1.480810E-6	3.486750E-7	1.857050E-7	1.280660E-8	1.200930E-12	14.500726	27.226196	1.174970E-6
	126.779363	1.481470E-6	3.458260E-7	1.817280E-7	1.263020E-8	1.231300E-12	14.388371	27.380881	1.173250E-6
	126.779583	1.484840E-6	3.405050E-7	1.799540E-7	1.273900E-8	1.251640E-12	14.126227	26.729335	1.164430E-6
	126.779803	1.481470E-6	3.412040E-7	1.823730E-7	1.284920E-8	1.220780E-12	14.193335	26.554494	1.161420E-6
	126.780012	1.478450E-6	3.432460E-7	1.847380E-7	1.298360E-8	1.220680E-12	14.228565	26.436890	1.165940E-6
	126.780231	1.479790E-6	3.474390E-7	1.861350E-7	1.299900E-8	1.189490E-12	14.319178	26.728133	1.170880E-6
	126.780451	1.479790E-6	3.489440E-7	1.848450E-7	1.270680E-8	1.206580E-12	14.546935	27.461202	1.174320E-6
	126.780671	1.479790E-6	3.445360E-7	1.812440E-7	1.261710E-8	1.159340E-12	14.364949	27.307067	1.171100E-6
	126.780891	1.474420E-6	3.401830E-7	1.805990E-7	1.276620E-8	1.211050E-12	14.146653	26.647162	1.161850E-6
	126.781100	1.478450E-6	3.416880E-7	1.826420E-7	1.291610E-8	1.176580E-12	14.140646	26.454425	1.160780E-6
	126.781319	1.473080E-6	3.437840E-7	1.845230E-7	1.291430E-8	1.221620E-12	14.288270	26.620413	1.163360E-6
	126.781539	1.472070E-6	3.464180E-7	1.853830E-7	1.285730E-8	1.192500E-12	14.418502	26.943293	1.169590E-6
	126.781759	1.472740E-6	3.461490E-7	1.830720E-7	1.260460E-8	1.196210E-12	14.524221	27.462117	1.172390E-6
	126.781968	1.470720E-6	3.414190E-7	1.795240E-7	1.258690E-8	1.214290E-12	14.262765	27.124947	1.166370E-6
	126.782188	1.471070E-6	3.383010E-7	1.798470E-7	1.268360E-8	1.209060E-12	14.179492	26.672317	1.156480E-6
	126.782407	1.466360E-6	3.391080E-7	1.814050E-7	1.287430E-8	1.196860E-12	14.090475	26.339918	1.157770E-6
	126.782627	1.465010E-6	3.429780E-7	1.843620E-7	1.287310E-8	1.189550E-12	14.321492	26.643000	1.162500E-6
	126.782836	1.464350E-6	3.455040E-7	1.845770E-7	1.274910E-8	1.164560E-12	14.477649	27.100266	1.167870E-6
	126.783056	1.465010E-6	3.429240E-7	1.803300E-7	1.243200E-8	1.195210E-12	14.505309	27.583977	1.167660E-6
	126.783275	1.462660E-6	3.373880E-7	1.781270E-7	1.250790E-8	1.217940E-12	14.241160	26.973992	1.157340E-6
	126.783495	1.465690E-6	3.360440E-7	1.791480E-7	1.266680E-8	1.208400E-12	14.143114	26.529510	1.149170E-6
	126.783704	1.454270E-6	3.376030E-7	1.815670E-7	1.282400E-8	1.179570E-12	14.158375	26.325873	1.153470E-6
	126.783924	1.455270E-6	3.415800E-7	1.841470E-7	1.286130E-8	1.198380E-12	14.317915	26.558746	1.158200E-6
	126.784144	1.454930E-6	3.442140E-7	1.834480E-7	1.264600E-8	1.178500E-12	14.506405	27.219200	1.163360E-6
	126.784363	1.458290E-6	3.416880E-7	1.797930E-7	1.249410E-8	1.169060E-12	14.390232	27.347948	1.163570E-6
	126.784572	1.455940E-6	3.378180E-7	1.785570E-7	1.260500E-8	1.167770E-12	14.165569	26.800317	1.154970E-6
	126.784792	1.449900E-6	3.388930E-7	1.810830E-7	1.279880E-8	1.172500E-12	14.148436	26.478498	1.152820E-6
	126.785012	1.447210E-6	3.419560E-7	1.832870E-7	1.294420E-8	1.224510E-12	14.159778	26.417701	1.173250E-6
	126.785231	1.454260E-6	3.560930E-7	1.907580E-7	1.329330E-8	1.217360E-12	14.349936	26.787404	1.169810E-6
	126.785440	1.448220E-6	3.525990E-7	1.864580E-7	1.286540E-8	1.217380E-12	14.492981	27.406765	1.166580E-6
	126.785660	1.450580E-6	3.450740E-7	1.811370E-7	1.261000E-8	1.209550E-12	14.364552	27.365107	1.161850E-6
	126.785880	1.443180E-6	3.408280E-7	1.810830E-7	1.269970E-8	1.192990E-12	14.258841	26.837484	1.152390E-6
	126.786100	1.441160E-6	3.407740E-7	1.823190E-7	1.283680E-8	1.217520E-12	14.202839	26.546647	1.149380E-6
	126.786308	1.434780E-6	3.430310E-7	1.841470E-7	1.287640E-8	1.214150E-12	14.301125	26.640288	1.148950E-6
	126.786528	1.436120E-6	3.443210E-7	1.843080E-7	1.277500E-8	1.188350E-12	14.427241	26.952720	1.152610E-6
	126.786748	1.436810E-6	3.431930E-7	1.812440E-7	1.250220E-8	1.204330E-12	14.496969	27.450609	1.155190E-6
	126.786968	1.438470E-6	3.381400E-7	1.780190E-7	1.246460E-8	1.232030E-12	14.281967	27.128027	1.146800E-6
	126.787188	1.439150E-6	3.351840E-7	1.782340E-7	1.255560E-8	1.216410E-12	14.195578	26.695976	1.137560E-6
	126.787396	1.435120E-6	3.361510E-7	1.799000E-7	1.270340E-8	1.258040E-12	14.161563	26.461498	1.137340E-6
	126.787616	1.426720E-6	3.394840E-7	1.822650E-7	1.278570E-8	1.154130E-12	14.255379	26.551851	1.141860E-6
	126.787836	1.436810E-6	3.423330E-7	1.825880E-7	1.256700E-8	1.186550E-12	14.529164	27.240630	1.148520E-6
	126.788056	1.431430E-6	3.401290E-7	1.787720E-7	1.237890E-8	1.159040E-12	14.441671	27.476512	1.150460E-6
	126.788264	1.433100E-6	3.347000E-7	1.762990E-7	1.239440E-8	1.201210E-12	14.224085	27.004131	1.141000E-6
	126.788484	1.428730E-6	3.340010E-7	1.778040E-7	1.248780E-8	1.203790E-12	14.238216	26.746184	1.134120E-6
	126.788704	1.430410E-6	3.361510E-7	1.800080E-7	1.266340E-8	1.172950E-12	14.214824	26.545083	1.138630E-6
	126.788924	1.431090E-6	3.394300E-7	1.817820E-7	1.274440E-8	1.182040E-12	14.263677	26.633659	1.144220E-6
	126.789132	1.433770E-6	3.429240E-7	1.828570E-7	1.260020E-8	1.200230E-12	14.512230	27.215758	1.150240E-6
	126.789352	1.432100E-6	3.408810E-7	1.794700E-7	1.238490E-8	1.184960E-12	14.491033	27.523920	1.150670E-6
	126.789572	1.429740E-6	3.358830E-7	1.771050E-7	1.244810E-8	1.222010E-12	14.227472	26.982672	1.141210E-6
	126.789792	1.428730E-6	3.361510E-7	1.793090E-7	1.265770E-8	1.173230E-12	14.166002	26.557036	1.136270E-6
	126.790000	1.423020E-6	3.374410E-7	1.809750E-7	1.267070E-8	1.159650E-12	14.282952	26.631599	1.140350E-6
	126.790220	1.424700E-6	3.403440E-7	1.819430E-7	1.271310E-8	1.223340E-12	14.311458	26.771126	1.145080E-6
	126.790440	1.430410E-6	3.417410E-7	1.808140E-7	1.242850E-8	1.185180E-12	14.548336	27.496560	1.149170E-6
	126.790660	1.427720E-6	3.368500E-7	1.763530E-7	1.227370E-8	1.179540E-12	14.368365	27.444862	1.145300E-6
	126.790868	1.425050E-6	3.320660E-7	1.757080E-7	1.238460E-8	1.166490E-12	14.187620	26.812816	1.135840E-6
	126.791088	1.425030E-6	3.327110E-7	1.772670E-7	1.248670E-8	1.166250E-12	14.196465	26.645231	1.133470E-6
	126.791308	1.420000E-6	3.352380E-7	1.791480E-7	1.261950E-8	1.175040E-12	14.196125	26.565078	1.137560E-6
	126.791528	1.422680E-6	3.385700E-7	1.805450E-7	1.256260E-8	1.206690E-12	14.371627	26.950631	1.142930E-6
	126.791736	1.425380E-6	3.393230E-7	1.783420E-7	1.231770E-8	1.197650E-12	14.478515	27.547594	1.147880E-6
	126.791956	1.425030E-6	3.337330E-7	1.745790E-7	1.226540E-8	1.166750E-12	14.233453	27.209304	1.141860E-6
	126.792176	1.423700E-6	3.303460E-7	1.754930E-7	1.235330E-8	1.161430E-12	14.206164	26.741518	1.131320E-6
	126.792396	1.418320E-6	3.319590E-7	1.774820E-7	1.246600E-8	1.160490E-12	14.237285	26.629151	1.130250E-6
	126.792604	1.418660E-6	3.342160E-7	1.787720E-7	1.255090E-8	1.153560E-12	14.243759	26.628847	1.134550E-6
	126.792824	1.418330E-6	3.371190E-7	1.799000E-7	1.241480E-8	1.197290E-12	14.490769	27.154606	1.141430E-6
	126.793044	1.416970E-6	3.370650E-7	1.775350E-7	1.219850E-8	1.191960E-12	14.553839	27.631676	1.145300E-6
	126.793264	1.416640E-6	3.321740E-7	1.749550E-7	1.226700E-8	1.177490E-12	14.262248	27.078666	1.137990E-6
	126.793472	1.411260E-6	3.318520E-7	1.768900E-7	1.237250E-8	1.192920E-12	14.297030	26.821742	1.130680E-6
	126.793692	1.411260E-6	3.338940E-7	1.785030E-7	1.254820E-8	1.162250E-12	14.225387	26.608916	1.133260E-6
	126.793912	1.411930E-6	3.373340E-7	1.812440E-7	1.265240E-8	1.166050E-12	14.324871	26.661661	1.136480E-6
	126.794132	1.405560E-6	3.394300E-7	1.810290E-7	1.245190E-8	1.190360E-12	14.538263	27.259294	1.141860E-6
	126.794340	1.407230E-6	3.370110E-7	1.772130E-7	1.224120E-8	1.176480E-12	14.476767	27.530879	1.144220E-6
	126.794560	1.407240E-6	3.380860E-7	1.797930E-7	1.255750E-8	1.156810E-12	14.317579	26.923034	1.142720E-6
	126.794780	1.408240E-6	3.381400E-7	1.798470E-7	1.260860E-8	1.175940E-12	14.263836	26.818203	1.129390E-6
	126.795000	1.406570E-6	3.352380E-7	1.798470E-7	1.260500E-8	1.156870E-12	14.267910	26.595637	1.128960E-6
	126.795208	1.405220E-6	3.374410E-7	1.810290E-7	1.254420E-8	1.204520E-12	14.431291	26.900161	1.132400E-6
	126.795428	1.398840E-6	3.386780E-7	1.793090E-7	1.230840E-8	1.177110E-12	14.568019	27.516005	1.136910E-6
	126.795648	1.404210E-6	3.340010E-7	1.753320E-7	1.217120E-8	1.226820E-12	14.405482	27.441912	1.133470E-6
	126.795868	1.397830E-6	3.297550E-7	1.750630E-7	1.226140E-8	1.175770E-12	14.277570	26.893748	1.122080E-6
	126.796088	1.398840E-6	3.306150E-7	1.765140E-7	1.240610E-8	1.181110E-12	14.228001	26.649390	1.119710E-6
	126.796296	1.398160E-6	3.327110E-7	1.782340E-7	1.249550E-8	1.195310E-12	14.263855	26.626466	1.122510E-6
	126.796516	1.396490E-6	3.360440E-7	1.801690E-7	1.240270E-8	1.155690E-12	14.526595	27.094423	1.127670E-6
	126.796736	1.392120E-6	3.364740E-7	1.777500E-7	1.217500E-8	1.170050E-12	14.599589	27.636468	1.131970E-6
	126.796956	1.399500E-6	3.309910E-7	1.738270E-7	1.210880E-8	1.159010E-12	14.355427	27.334748	1.126590E-6
	126.797164	1.399170E-6	3.282500E-7	1.747940E-7	1.225400E-8	1.167170E-12	14.264240	26.787172	1.117350E-6
	126.797384	1.394460E-6	3.301850E-7	1.765140E-7	1.240580E-8	1.180990E-12	14.228345	26.615373	1.119070E-6
	126.797604	1.396820E-6	3.340010E-7	1.788790E-7	1.252970E-8	1.188830E-12	14.276399	26.656744	1.123800E-6
	126.797824	1.394810E-6	3.373880E-7	1.800620E-7	1.245320E-8	1.188570E-12	14.459095	27.092474	1.129820E-6
	126.798032	1.399510E-6	3.368500E-7	1.776430E-7	1.219850E-8	1.155640E-12	14.562692	27.614051	1.134120E-6
	126.798252	1.396150E-6	3.324430E-7	1.752240E-7	1.225890E-8	1.194290E-12	14.293615	27.118502	1.127670E-6
	126.798472	1.393460E-6	3.312600E-7	1.761920E-7	1.232580E-8	1.157100E-12	14.294569	26.875335	1.117990E-6
	126.798692	1.391780E-6	3.314750E-7	1.768900E-7	1.245270E-8	1.178500E-12	14.204952	26.618725	1.122940E-6
	126.798900	1.393130E-6	3.363660E-7	1.807070E-7	1.262880E-8	1.187840E-12	14.309119	26.634835	1.128100E-6
	126.799120	1.388090E-6	3.394300E-7	1.806530E-7	1.239530E-8	1.163490E-12	14.574314	27.383766	1.133470E-6
	126.799340	1.389430E-6	3.371190E-7	1.771590E-7	1.223040E-8	1.170690E-12	14.485135	27.564021	1.134550E-6
	126.799560	1.390430E-6	3.324970E-7	1.753320E-7	1.227580E-8	1.158110E-12	14.282735	27.085567	1.123580E-6
	126.799769	1.388760E-6	3.311530E-7	1.762990E-7	1.228340E-8	1.189100E-12	14.352622	26.959392	1.119280E-6
	126.799988	1.388420E-6	3.332490E-7	1.786640E-7	1.251930E-8	1.176600E-12	14.271085	26.618821	1.122510E-6
	126.800208	1.388420E-6	3.359360E-7	1.797930E-7	1.250010E-8	1.149820E-12	14.383325	26.874665	1.124440E-6
	126.800428	1.388090E-6	3.362050E-7	1.780190E-7	1.222160E-8	1.196180E-12	14.565932	27.509082	1.128310E-6
	126.800637	1.386080E-6	3.316360E-7	1.740420E-7	1.202820E-8	1.146530E-12	14.469497	27.571540	1.125090E-6
	126.800856	1.381700E-6	3.261000E-7	1.725370E-7	1.207390E-8	1.189880E-12	14.290080	27.008672	1.114340E-6
	126.801076	1.383380E-6	3.266380E-7	1.744720E-7	1.225760E-8	1.174220E-12	14.233781	26.647794	1.111330E-6
	126.801296	1.378000E-6	3.297010E-7	1.766220E-7	1.238390E-8	1.165670E-12	14.262228	26.623358	1.114550E-6
	126.801505	1.380020E-6	3.320130E-7	1.775890E-7	1.225300E-8	1.171270E-12	14.493512	27.096466	1.120570E-6
	126.801725	1.378680E-6	3.330340E-7	1.762990E-7	1.215750E-8	1.159220E-12	14.501254	27.393296	1.128740E-6
	126.801944	1.380360E-6	3.307230E-7	1.734500E-7	1.208530E-8	1.174720E-12	14.352147	27.365725	1.123150E-6
	126.802164	1.382710E-6	3.256170E-7	1.727520E-7	1.214570E-8	1.173130E-12	14.223305	26.809241	1.113480E-6
	126.802384	1.378010E-6	3.272290E-7	1.746330E-7	1.224210E-8	1.174340E-12	14.264955	26.729809	1.114340E-6
	126.802593	1.376990E-6	3.308300E-7	1.771050E-7	1.242600E-8	1.185520E-12	14.252776	26.624014	1.119280E-6
	126.802813	1.378010E-6	3.343780E-7	1.782340E-7	1.237630E-8	1.181840E-12	14.401235	27.017606	1.125300E-6
	126.803032	1.372630E-6	3.340010E-7	1.755470E-7	1.211250E-8	1.197460E-12	14.493044	27.574902	1.127880E-6
	126.803252	1.373970E-6	3.289490E-7	1.725900E-7	1.208160E-8	1.163820E-12	14.285360	27.227271	1.120140E-6
	126.803461	1.369270E-6	3.269060E-7	1.737190E-7	1.219780E-8	1.164310E-12	14.241830	26.800407	1.110470E-6
	126.803681	1.369610E-6	3.278740E-7	1.747400E-7	1.233290E-8	1.171240E-12	14.168606	26.585312	1.111540E-6
	126.803900	1.368940E-6	3.302930E-7	1.769440E-7	1.239200E-8	1.179240E-12	14.278890	26.653728	1.115200E-6
	126.804120	1.367600E-6	3.330340E-7	1.774820E-7	1.215790E-8	1.176420E-12	14.598080	27.392395	1.119930E-6
	126.804329	1.368940E-6	3.303460E-7	1.733970E-7	1.197080E-8	1.170780E-12	14.484997	27.595984	1.119710E-6
	126.804549	1.367930E-6	3.249720E-7	1.710320E-7	1.201710E-8	1.159640E-12	14.232386	27.042464	1.108960E-6
	126.804769	1.365240E-6	3.245410E-7	1.728590E-7	1.211790E-8	1.178400E-12	14.264765	26.781951	1.102510E-6
	126.804988	1.360200E-6	3.263150E-7	1.749550E-7	1.231030E-8	1.192710E-12	14.212083	26.507477	1.106810E-6
	126.805197	1.361890E-6	3.299700E-7	1.765140E-7	1.230160E-8	1.175100E-12	14.348865	26.823340	1.110040E-6
	126.805417	1.358870E-6	3.319050E-7	1.760840E-7	1.204070E-8	1.205400E-12	14.624067	27.565258	1.115410E-6
	126.805637	1.359530E-6	3.280350E-7	1.719450E-7	1.187160E-8	1.159810E-12	14.483726	27.631911	1.112830E-6
	126.805856	1.358190E-6	3.230900E-7	1.705480E-7	1.199390E-8	1.184800E-12	14.219562	26.937860	1.100580E-6
	126.806065	1.351810E-6	3.232520E-7	1.724830E-7	1.209700E-8	1.193490E-12	14.258329	26.721667	1.097350E-6
	126.806285	1.352810E-6	3.262080E-7	1.745790E-7	1.226800E-8	1.222550E-12	14.230437	26.590153	1.101870E-6
	126.806505	1.353480E-6	3.290570E-7	1.757080E-7	1.221000E-8	1.152610E-12	14.390500	26.949795	1.106810E-6
	126.806725	1.354150E-6	3.306150E-7	1.746330E-7	1.200910E-8	1.225650E-12	14.541723	27.530373	1.112620E-6
	126.806933	1.355170E-6	3.276590E-7	1.717840E-7	1.197050E-8	1.189440E-12	14.350612	27.372207	1.108750E-6
	126.807153	1.349780E-6	3.241650E-7	1.715150E-7	1.206110E-8	1.178160E-12	14.220511	26.876902	1.099070E-6
	126.807373	1.350790E-6	3.256170E-7	1.735580E-7	1.219740E-8	1.184430E-12	14.229098	26.695607	1.098860E-6
	126.807593	1.346760E-6	3.285730E-7	1.757620E-7	1.231440E-8	1.204630E-12	14.272884	26.682015	1.101870E-6
	126.807801	1.343070E-6	3.319050E-7	1.769440E-7	1.218770E-8	1.176490E-12	14.518244	27.232784	1.107240E-6
	126.808021	1.349450E-6	3.308840E-7	1.741490E-7	1.195960E-8	1.197120E-12	14.561440	27.666812	1.109610E-6
	126.808241	1.352480E-6	3.260470E-7	1.711390E-7	1.199500E-8	1.132500E-12	14.267528	27.181909	1.100790E-6
	126.808461	1.347100E-6	3.238430E-7	1.719450E-7	1.202950E-8	1.190470E-12	14.293612	26.920737	1.091550E-6
	126.808669	1.344080E-6	3.249720E-7	1.733430E-7	1.219270E-8	1.204060E-12	14.216949	26.652997	1.093480E-6
	126.808889	1.345420E-6	3.279810E-7	1.754390E-7	1.219960E-8	1.213150E-12	14.380717	26.884570	1.097570E-6
	126.809109	1.346090E-6	3.305080E-7	1.757080E-7	1.219650E-8	1.180280E-12	14.406428	27.098594	1.120790E-6
	126.809329	1.347430E-6	3.383550E-7	1.774280E-7	1.223440E-8	1.177790E-12	14.502387	27.656035	1.116920E-6
	126.809537	1.347110E-6	3.358290E-7	1.785030E-7	1.248870E-8	1.205250E-12	14.293161	26.890629	1.115630E-6
	126.809757	1.345090E-6	3.341090E-7	1.763530E-7	1.234630E-8	1.204810E-12	14.283875	27.061468	1.099500E-6
	126.809977	1.340720E-6	3.298090E-7	1.757620E-7	1.233480E-8	1.193210E-12	14.249278	26.738091	1.099500E-6
	126.810197	1.343070E-6	3.322810E-7	1.776970E-7	1.233320E-8	1.182070E-12	14.408021	26.941994	1.102730E-6
	126.810417	1.338700E-6	3.319590E-7	1.751700E-7	1.199560E-8	1.141660E-12	14.602854	27.673397	1.103800E-6
	126.810625	1.341730E-6	3.267990E-7	1.708700E-7	1.184640E-8	1.174430E-12	14.423791	27.586355	1.101440E-6
	126.810845	1.342070E-6	3.216930E-7	1.693650E-7	1.188200E-8	1.177700E-12	14.253913	27.073977	1.092190E-6
	126.811065	1.339030E-6	3.229290E-7	1.716230E-7	1.205230E-8	1.198200E-12	14.239855	26.793973	1.090260E-6
	126.811285	1.333330E-6	3.246490E-7	1.736650E-7	1.222170E-8	1.187230E-12	14.209562	26.563326	1.095420E-6
	126.811493	1.342070E-6	3.288950E-7	1.760840E-7	1.220590E-8	1.180180E-12	14.426138	26.945576	1.100150E-6
	126.811713	1.335010E-6	3.307230E-7	1.744180E-7	1.199900E-8	1.187370E-12	14.536045	27.562547	1.105090E-6
	126.811933	1.340040E-6	3.266920E-7	1.709240E-7	1.193640E-8	1.209350E-12	14.319560	27.369391	1.101650E-6
	126.812153	1.336010E-6	3.226070E-7	1.707090E-7	1.201270E-8	1.174920E-12	14.210710	26.855495	1.091330E-6
	126.812361	1.335680E-6	3.235740E-7	1.717840E-7	1.207850E-8	1.166970E-12	14.222296	26.789254	1.090690E-6
	126.812581	1.334000E-6	3.256170E-7	1.737190E-7	1.215450E-8	1.184300E-12	14.292567	26.789831	1.093270E-6
	126.812801	1.332990E-6	3.287880E-7	1.750630E-7	1.209840E-8	1.151490E-12	14.469930	27.176156	1.098860E-6
	126.813021	1.336350E-6	3.283040E-7	1.725370E-7	1.194430E-8	1.169390E-12	14.445133	27.486249	1.102510E-6
	126.813229	1.334000E-6	3.229830E-7	1.690970E-7	1.186760E-8	1.164900E-12	14.248627	27.215528	1.096280E-6
	126.813449	1.333670E-6	3.209400E-7	1.702250E-7	1.191330E-8	1.194430E-12	14.288652	26.939639	1.092840E-6
	126.813669	1.333330E-6	3.263690E-7	1.736120E-7	1.223550E-8	1.139580E-12	14.189204	26.673941	1.091980E-6
	126.813889	1.328620E-6	3.266920E-7	1.743640E-7	1.221320E-8	1.188830E-12	14.276684	26.749091	1.094340E-6
	126.814097	1.330980E-6	3.283580E-7	1.745790E-7	1.200740E-8	1.180960E-12	14.539284	27.346303	1.098860E-6
	126.814317	1.327950E-6	3.256170E-7	1.704400E-7	1.174830E-8	1.171090E-12	14.507631	27.716095	1.099720E-6
	126.814537	1.330310E-6	3.199730E-7	1.676990E-7	1.178460E-8	1.211420E-12	14.230351	27.151791	1.089610E-6
	126.814757	1.324260E-6	3.194350E-7	1.696340E-7	1.191390E-8	1.161480E-12	14.238327	26.811959	1.081230E-6
	126.814977	1.322240E-6	3.197580E-7	1.709780E-7	1.204530E-8	1.173120E-12	14.194582	26.546288	1.084670E-6
	126.815185	1.323590E-6	3.231980E-7	1.724830E-7	1.203030E-8	1.190350E-12	14.337381	26.865332	1.089400E-6
	126.815405	1.322240E-6	3.255630E-7	1.726980E-7	1.187840E-8	1.158360E-12	14.538827	27.407984	1.096280E-6
	126.815625	1.321570E-6	3.239500E-7	1.696340E-7	1.177660E-8	1.168540E-12	14.404327	27.507939	1.096490E-6
	126.815845	1.319560E-6	3.194890E-7	1.679140E-7	1.183000E-8	1.188240E-12	14.193914	27.006678	1.086390E-6
	126.816053	1.319220E-6	3.203490E-7	1.702790E-7	1.197510E-8	1.208800E-12	14.219422	26.751259	1.083380E-6
	126.816273	1.312840E-6	3.225530E-7	1.721600E-7	1.209430E-8	1.167380E-12	14.234805	26.669836	1.087680E-6
	126.816493	1.316200E-6	3.256170E-7	1.738270E-7	1.210580E-8	1.211270E-12	14.358985	26.897603	1.091330E-6
	126.816713	1.314520E-6	3.273900E-7	1.727520E-7	1.189520E-8	1.189700E-12	14.522833	27.522866	1.095630E-6
	126.816921	1.313510E-6	3.234130E-7	1.692580E-7	1.179100E-8	1.188680E-12	14.354847	27.428802	1.091120E-6
	126.817141	1.317550E-6	3.187370E-7	1.686670E-7	1.183470E-8	1.143050E-12	14.251903	26.932411	1.081230E-6
	126.817361	1.308810E-6	3.201340E-7	1.703330E-7	1.195120E-8	1.150560E-12	14.252376	26.786766	1.077790E-6
	126.817581	1.311840E-6	3.222300E-7	1.715690E-7	1.203720E-8	1.168060E-12	14.253232	26.769515	1.080580E-6
	126.817789	1.305110E-6	3.249720E-7	1.726440E-7	1.199560E-8	1.163700E-12	14.392277	27.090933	1.085960E-6
	126.818009	1.307790E-6	3.247030E-7	1.707090E-7	1.169890E-8	1.222000E-12	14.591885	27.755003	1.089830E-6
	126.818229	1.306800E-6	3.207250E-7	1.675380E-7	1.173940E-8	1.135630E-12	14.271428	27.320391	1.082300E-6
	126.818449	1.305110E-6	3.172850E-7	1.676990E-7	1.183110E-8	1.156840E-12	14.174422	26.817878	1.073060E-6
	126.818657	1.303760E-6	3.187900E-7	1.693120E-7	1.193310E-8	1.208880E-12	14.188434	26.714768	1.073490E-6
	126.818877	1.304440E-6	3.218540E-7	1.721600E-7	1.198920E-8	1.172440E-12	14.359590	26.845327	1.077360E-6
	126.819097	1.301090E-6	3.245410E-7	1.722140E-7	1.188040E-8	1.166550E-12	14.495640	27.317346	1.082520E-6
	126.819317	1.299070E-6	3.219620E-7	1.686670E-7	1.161370E-8	1.189700E-12	14.523106	27.722603	1.083160E-6
	126.819525	1.299400E-6	3.184140E-7	1.674310E-7	1.179500E-8	1.180990E-12	14.195083	26.995676	1.076070E-6
	126.819745	1.303100E-6	3.179300E-7	1.683440E-7	1.178230E-8	1.159910E-12	14.287872	26.983696	1.068760E-6
	126.819965	1.297390E-6	3.188980E-7	1.695270E-7	1.193140E-8	1.184750E-12	14.208475	26.727626	1.072630E-6
	126.820185	1.297720E-6	3.221230E-7	1.718380E-7	1.201770E-8	1.171890E-12	14.298743	26.804047	1.078430E-6
	126.820394	1.299070E-6	3.255630E-7	1.725900E-7	1.185050E-8	1.191350E-12	14.563942	27.472512	1.084240E-6
	126.820613	1.299730E-6	3.228210E-7	1.688280E-7	1.168350E-8	1.184140E-12	14.450122	27.630505	1.084670E-6
	126.820833	1.299400E-6	3.187370E-7	1.676450E-7	1.170940E-8	1.196050E-12	14.317130	27.220609	1.078430E-6
	126.821053	1.299070E-6	3.205100E-7	1.697950E-7	1.195930E-8	1.181930E-12	14.197737	26.800064	1.075420E-6
	126.821273	1.292350E-6	3.219080E-7	1.715150E-7	1.209270E-8	1.176720E-12	14.183350	26.620027	1.079290E-6
	126.821481	1.298400E-6	3.259930E-7	1.739340E-7	1.205810E-8	1.195580E-12	14.424661	27.035188	1.100150E-6
	126.821701	1.296710E-6	3.367960E-7	1.772670E-7	1.217430E-8	1.176280E-12	14.560755	27.664506	1.095850E-6
	126.821921	1.295370E-6	3.279280E-7	1.708170E-7	1.190620E-8	1.238830E-12	14.346895	27.542625	1.092620E-6
	126.822141	1.299400E-6	3.287880E-7	1.753320E-7	1.226540E-8	1.195330E-12	14.294846	26.806138	1.089180E-6
	126.822350	1.295370E-6	3.275510E-7	1.731280E-7	1.214440E-8	1.157610E-12	14.255789	26.971361	1.076500E-6
	126.822569	1.290670E-6	3.229290E-7	1.717300E-7	1.206040E-8	1.195280E-12	14.239163	26.775978	1.075210E-6
	126.822789	1.288310E-6	3.236820E-7	1.721600E-7	1.193100E-8	1.195030E-12	14.429637	27.129495	1.079080E-6
	126.823009	1.291670E-6	3.226600E-7	1.692580E-7	1.160800E-8	1.190240E-12	14.581151	27.796347	1.081010E-6
	126.823218	1.295370E-6	3.165870E-7	1.652800E-7	1.155950E-8	1.194800E-12	14.298196	27.387603	1.073490E-6
	126.823437	1.290660E-6	3.127170E-7	1.653340E-7	1.167510E-8	1.177950E-12	14.161249	26.784953	1.063170E-6
	126.823657	1.286970E-6	3.144370E-7	1.672690E-7	1.183470E-8	1.181860E-12	14.133776	26.569072	1.064670E-6
	126.823877	1.282260E-6	3.175540E-7	1.690970E-7	1.186160E-8	1.148340E-12	14.255834	26.771599	1.067470E-6
	126.824086	1.283610E-6	3.192740E-7	1.693120E-7	1.172450E-8	1.200960E-12	14.440872	27.231353	1.074130E-6
	126.824306	1.283620E-6	3.188980E-7	1.668930E-7	1.147990E-8	1.166040E-12	14.537844	27.778813	1.077360E-6
	126.824525	1.285630E-6	3.147050E-7	1.643670E-7	1.155510E-8	1.166540E-12	14.224628	27.235160	1.069190E-6
	126.824745	1.281930E-6	3.138990E-7	1.656030E-7	1.168320E-8	1.184700E-12	14.174456	26.867553	1.063170E-6
	126.824954	1.277570E-6	3.162640E-7	1.679140E-7	1.185150E-8	1.167810E-12	14.168164	26.685567	1.067040E-6
	126.825174	1.277900E-6	3.195430E-7	1.702790E-7	1.190290E-8	1.175590E-12	14.305673	26.845811	1.070050E-6
	126.825394	1.271180E-6	3.212090E-7	1.698490E-7	1.170970E-8	1.183370E-12	14.504983	27.431019	1.074560E-6
	126.825613	1.272520E-6	3.192740E-7	1.668930E-7	1.156020E-8	1.157180E-12	14.436861	27.618380	1.074560E-6
	126.825822	1.271510E-6	3.143290E-7	1.646890E-7	1.162950E-8	1.168460E-12	14.161314	27.028591	1.063600E-6
	126.826042	1.269490E-6	3.140600E-7	1.661940E-7	1.173660E-8	1.153010E-12	14.160319	26.759027	1.060800E-6
	126.826262	1.267150E-6	3.160490E-7	1.685050E-7	1.186720E-8	1.159300E-12	14.199221	26.632146	1.061880E-6
	126.826481	1.265470E-6	3.186290E-7	1.697420E-7	1.186350E-8	1.178290E-12	14.307919	26.857926	1.067040E-6
	126.826690	1.268490E-6	3.202950E-7	1.686670E-7	1.163480E-8	1.175420E-12	14.496768	27.529051	1.070910E-6
	126.826910	1.267150E-6	3.158880E-7	1.650120E-7	1.144870E-8	1.181530E-12	14.413165	27.591604	1.066390E-6
	126.827130	1.266810E-6	3.114270E-7	1.640980E-7	1.154370E-8	1.144200E-12	14.215373	26.978092	1.055640E-6
	126.827350	1.262440E-6	3.122330E-7	1.655490E-7	1.163950E-8	1.165990E-12	14.223034	26.825293	1.053490E-6
	126.827569	1.258740E-6	3.148130E-7	1.678070E-7	1.176380E-8	1.169080E-12	14.264693	26.761166	1.056500E-6
	126.827778	1.262110E-6	3.178770E-7	1.688280E-7	1.172080E-8	1.157870E-12	14.404136	27.120760	1.062520E-6
	126.827998	1.263800E-6	3.176080E-7	1.662480E-7	1.151720E-8	1.163040E-12	14.434758	27.576842	1.065530E-6
	126.828218	1.259420E-6	3.130390E-7	1.635610E-7	1.145140E-8	1.194200E-12	14.283057	27.336308	1.059510E-6
	126.828438	1.256400E-6	3.103520E-7	1.639370E-7	1.157430E-8	1.158740E-12	14.163880	26.813889	1.050270E-6
	126.828646	1.257070E-6	3.110500E-7	1.652800E-7	1.165910E-8	1.171960E-12	14.176051	26.678732	1.051990E-6
	126.828866	1.258080E-6	3.144900E-7	1.678600E-7	1.178330E-8	1.153770E-12	14.245585	26.689467	1.056290E-6
	126.829086	1.258090E-6	3.178230E-7	1.687740E-7	1.168690E-8	1.142340E-12	14.441298	27.194808	1.063810E-6
	126.829306	1.256400E-6	3.168020E-7	1.657640E-7	1.152000E-8	1.131580E-12	14.389236	27.500174	1.066820E-6
	126.829514	1.261440E-6	3.128240E-7	1.639900E-7	1.152930E-8	1.183640E-12	14.223760	27.132957	1.059510E-6
	126.829734	1.254720E-6	3.122870E-7	1.646890E-7	1.157400E-8	1.144160E-12	14.229221	26.981769	1.052420E-6
	126.829954	1.252370E-6	3.125020E-7	1.656570E-7	1.168420E-8	1.145830E-12	14.177864	26.745691	1.055860E-6
	126.830174	1.251360E-6	3.151890E-7	1.680220E-7	1.171870E-8	1.174250E-12	14.337939	26.896243	1.057580E-6
	126.830382	1.249000E-6	3.169630E-7	1.675920E-7	1.159540E-8	1.179450E-12	14.453318	27.335236	1.063380E-6
	126.830602	1.252370E-6	3.138450E-7	1.637220E-7	1.138350E-8	1.170270E-12	14.382396	27.570167	1.062520E-6
	126.830822	1.249000E-6	3.084170E-7	1.615720E-7	1.139220E-8	1.152110E-12	14.182686	27.072646	1.052850E-6
	126.831042	1.245320E-6	3.085240E-7	1.633990E-7	1.148530E-8	1.181890E-12	14.226794	26.862511	1.049190E-6
	126.831262	1.245990E-6	3.091690E-7	1.647430E-7	1.161610E-8	1.142890E-12	14.182299	26.615559	1.052850E-6
	126.831470	1.242630E-6	3.123940E-7	1.665710E-7	1.164790E-8	1.139580E-12	14.300518	26.819770	1.057150E-6
	126.831690	1.240610E-6	3.142750E-7	1.652800E-7	1.139600E-8	1.147830E-12	14.503335	27.577659	1.061230E-6
	126.831910	1.245980E-6	3.095450E-7	1.611420E-7	1.124850E-8	1.139250E-12	14.325643	27.518780	1.058010E-6
	126.832130	1.243640E-6	3.043850E-7	1.600670E-7	1.132410E-8	1.166840E-12	14.135075	26.879399	1.047690E-6
	126.832338	1.236590E-6	3.055680E-7	1.620560E-7	1.146310E-8	1.153210E-12	14.137188	26.656664	1.046400E-6
	126.832558	1.238250E-6	3.077720E-7	1.635610E-7	1.154150E-8	1.171170E-12	14.171555	26.666551	1.050050E-6
	126.832778	1.231550E-6	3.100290E-7	1.648500E-7	1.144000E-8	1.136640E-12	14.409965	27.100437	1.055210E-6
	126.832998	1.232550E-6	3.099220E-7	1.627540E-7	1.118070E-8	1.181440E-12	14.556691	27.719374	1.060370E-6
	126.833206	1.227850E-6	3.056220E-7	1.596370E-7	1.121290E-8	1.175830E-12	14.236906	27.256285	1.058010E-6
	126.833426	1.235900E-6	3.042240E-7	1.613030E-7	1.134020E-8	1.159010E-12	14.224000	26.827040	1.049410E-6
	126.833646	1.229520E-6	3.049230E-7	1.622700E-7	1.145610E-8	1.149560E-12	14.164506	26.616650	1.053280E-6
	126.833866	1.230190E-6	3.097600E-7	1.650660E-7	1.163710E-8	1.168820E-12	14.184462	26.618316	1.074560E-6
	126.834074	1.231880E-6	3.217470E-7	1.706020E-7	1.187360E-8	1.130350E-12	14.368178	27.097679	1.073270E-6
	126.834294	1.227180E-6	3.184680E-7	1.678070E-7	1.181480E-8	1.164590E-12	14.203118	26.955006	1.084450E-6
	126.834514	1.228180E-6	3.173390E-7	1.656570E-7	1.162540E-8	1.141240E-12	14.249574	27.297039	1.067040E-6
	126.834734	1.222470E-6	3.109970E-7	1.639900E-7	1.151860E-8	1.164120E-12	14.236973	26.999549	1.055000E-6
	126.834942	1.217760E-6	3.092770E-7	1.638830E-7	1.162160E-8	1.142200E-12	14.101587	26.612256	1.062950E-6
	126.835162	1.220450E-6	3.147590E-7	1.676990E-7	1.178670E-8	1.146490E-12	14.227816	26.704591	1.061020E-6
	126.835382	1.218100E-6	3.146520E-7	1.665710E-7	1.151790E-8	1.166230E-12	14.461924	27.318522	1.061450E-6
	126.835602	1.215420E-6	3.096530E-7	1.614100E-7	1.121760E-8	1.128500E-12	14.388996	27.604211	1.058010E-6
	126.835810	1.217100E-6	3.023970E-7	1.585080E-7	1.121790E-8	1.122100E-12	14.129917	26.956650	1.046610E-6
	126.836030	1.213400E-6	3.021820E-7	1.604430E-7	1.132280E-8	1.117450E-12	14.169905	26.687922	1.041020E-6
	126.836250	1.207690E-6	3.029880E-7	1.618410E-7	1.143090E-8	1.120630E-12	14.158203	26.506049	1.042960E-6
	126.836470	1.207690E-6	3.057830E-7	1.630770E-7	1.139970E-8	1.170870E-12	14.305376	26.823776	1.047470E-6
	126.836690	1.207350E-6	3.073420E-7	1.622700E-7	1.117830E-8	1.129840E-12	14.516519	27.494521	1.052200E-6
	126.836898	1.206350E-6	3.031490E-7	1.587230E-7	1.102440E-8	1.156860E-12	14.397428	27.498004	1.048120E-6
	126.837118	1.207010E-6	2.986880E-7	1.573790E-7	1.116540E-8	1.180550E-12	14.095241	26.751214	1.037800E-6
	126.837338	1.205000E-6	2.998170E-7	1.594760E-7	1.125520E-8	1.174160E-12	14.169095	26.638087	1.037150E-6
	126.837558	1.201640E-6	3.026650E-7	1.615720E-7	1.135190E-8	1.157310E-12	14.233036	26.662057	1.040380E-6
	126.837766	1.207360E-6	3.055140E-7	1.628620E-7	1.134660E-8	1.142560E-12	14.353375	26.925599	1.045970E-6
	126.837986	1.209030E-6	3.065890E-7	1.619480E-7	1.118700E-8	1.156620E-12	14.476446	27.405828	1.050480E-6
	126.838206	1.201310E-6	3.031490E-7	1.587230E-7	1.110630E-8	1.170690E-12	14.291258	27.295229	1.046610E-6
	126.838426	1.197610E-6	3.001930E-7	1.587770E-7	1.120250E-8	1.158090E-12	14.173354	26.796965	1.038870E-6
	126.838634	1.197940E-6	3.022350E-7	1.609270E-7	1.132710E-8	1.175790E-12	14.207255	26.682469	1.038870E-6
	126.838854	1.198280E-6	3.053530E-7	1.628080E-7	1.143160E-8	1.125290E-12	14.241926	26.711309	1.041240E-6
	126.839074	1.195260E-6	3.072880E-7	1.629150E-7	1.133850E-8	1.195940E-12	14.368303	27.101292	1.045970E-6
	126.839294	1.192570E-6	3.061050E-7	1.609270E-7	1.115780E-8	1.135530E-12	14.422825	27.434172	1.048330E-6
	126.839502	1.194250E-6	3.021280E-7	1.586160E-7	1.110740E-8	1.175330E-12	14.280210	27.200605	1.039730E-6
	126.839722	1.197270E-6	3.004080E-7	1.588840E-7	1.118290E-8	1.171320E-12	14.207764	26.863157	1.032210E-6
	126.839942	1.187870E-6	3.005690E-7	1.602280E-7	1.131470E-8	1.135260E-12	14.161047	26.564469	1.035000E-6
	126.840162	1.190220E-6	3.041170E-7	1.627010E-7	1.139570E-8	1.172890E-12	14.277403	26.686996	1.039090E-6
	126.840370	1.193590E-6	3.064820E-7	1.624320E-7	1.121990E-8	1.154700E-12	14.477134	27.315930	1.043820E-6
	126.840590	1.196940E-6	3.036330E-7	1.588840E-7	1.103550E-8	1.173010E-12	14.397535	27.514204	1.044680E-6
	126.840810	1.192900E-6	2.994400E-7	1.574330E-7	1.107990E-8	1.152730E-12	14.208883	27.025515	1.033500E-6
	126.841030	1.193910E-6	2.992250E-7	1.586690E-7	1.120980E-8	1.157730E-12	14.154490	26.693161	1.028550E-6
	126.841238	1.187870E-6	2.999780E-7	1.599060E-7	1.128000E-8	1.156940E-12	14.176064	26.593794	1.033280E-6
	126.841458	1.184180E-6	3.027730E-7	1.620560E-7	1.133140E-8	1.175810E-12	14.301498	26.719823	1.038660E-6
	126.841678	1.173750E-6	2.998170E-7	1.588310E-7	1.101000E-8	1.127170E-12	14.426067	27.231335	1.042530E-6
	126.841898	1.157960E-6	2.920770E-7	1.531330E-7	1.075090E-8	1.132860E-12	14.243738	27.167679	1.038870E-6
	126.842118	1.156630E-6	2.878300E-7	1.525960E-7	1.082660E-8	1.161430E-12	14.094545	26.585447	1.030490E-6
	126.842326	1.150910E-6	2.891200E-7	1.549610E-7	1.096190E-8	1.119230E-12	14.136327	26.374990	1.029200E-6
	126.842546	1.155270E-6	2.918620E-7	1.566270E-7	1.112150E-8	1.167630E-12	14.083262	26.243043	1.033070E-6
	126.842766	1.156630E-6	2.947640E-7	1.580240E-7	1.108620E-8	1.118310E-12	14.254118	26.588371	1.039300E-6
	126.842986	1.154610E-6	2.958390E-7	1.570030E-7	1.093230E-8	1.144610E-12	14.361388	27.061003	1.044680E-6
	126.843194	1.156630E-6	2.932050E-7	1.546380E-7	1.089410E-8	1.125360E-12	14.194656	26.914109	1.040590E-6
	126.843414	1.151240E-6	2.899800E-7	1.545310E-7	1.098640E-8	1.130550E-12	14.065663	26.394451	1.031560E-6
	126.843634	1.151590E-6	2.910550E-7	1.553910E-7	1.104320E-8	1.108060E-12	14.071193	26.356038	1.031780E-6
	126.843854	1.151590E-6	2.930980E-7	1.573260E-7	1.116420E-8	1.138170E-12	14.092008	26.253381	1.033710E-6
	126.844063	1.153270E-6	2.955700E-7	1.584540E-7	1.101300E-8	1.134680E-12	14.387905	26.838282	1.039520E-6
	126.844282	1.153270E-6	2.946030E-7	1.555520E-7	1.079720E-8	1.147960E-12	14.406698	27.285129	1.042740E-6
	126.844502	1.152930E-6	2.896580E-7	1.528110E-7	1.082890E-8	1.129900E-12	14.111406	26.748608	1.035000E-6
	126.844722	1.144190E-6	2.885290E-7	1.537780E-7	1.088590E-8	1.127330E-12	14.126347	26.504837	1.025760E-6
	126.844931	1.146210E-6	2.891740E-7	1.548530E-7	1.101840E-8	1.129230E-12	14.054037	26.244645	1.028770E-6
	126.845150	1.150240E-6	2.921300E-7	1.565730E-7	1.110880E-8	1.145190E-12	14.094502	26.297170	1.033070E-6
	126.845370	1.146210E-6	2.940120E-7	1.569490E-7	1.092670E-8	1.125210E-12	14.363806	26.907667	1.038870E-6
	126.845590	1.144870E-6	2.925070E-7	1.537240E-7	1.076950E-8	1.142300E-12	14.274015	27.160685	1.038870E-6
	126.845799	1.149580E-6	2.874540E-7	1.516280E-7	1.073550E-8	1.097660E-12	14.123981	26.776023	1.028340E-6
	126.846019	1.144870E-6	2.863790E-7	1.526490E-7	1.086990E-8	1.149870E-12	14.043275	26.346057	1.022320E-6
	126.846238	1.141170E-6	2.879380E-7	1.550680E-7	1.101630E-8	1.124660E-12	14.076232	26.137451	1.025970E-6
	126.846458	1.141170E-6	2.913780E-7	1.566270E-7	1.102940E-8	1.122710E-12	14.200863	26.418300	1.031560E-6
	126.846667	1.141510E-6	2.935820E-7	1.557670E-7	1.086350E-8	1.132860E-12	14.338565	27.024624	1.036290E-6
	126.846887	1.143520E-6	2.903030E-7	1.529720E-7	1.070690E-8	1.099710E-12	14.287235	27.113637	1.034790E-6
	126.847106	1.143860E-6	2.872390E-7	1.525420E-7	1.080810E-8	1.116320E-12	14.113674	26.576272	1.026400E-6
	126.847326	1.135120E-6	2.875080E-7	1.535090E-7	1.094470E-8	1.141360E-12	14.025876	26.269153	1.023820E-6
	126.847535	1.135800E-6	2.896580E-7	1.556060E-7	1.103850E-8	1.171520E-12	14.096662	26.240703	1.027050E-6
	126.847755	1.135460E-6	2.931520E-7	1.572720E-7	1.104250E-8	1.145010E-12	14.242427	26.547612	1.031560E-6
	126.847975	1.132770E-6	2.938500E-7	1.556590E-7	1.082350E-8	1.124320E-12	14.381577	27.149259	1.035220E-6
	126.848194	1.134780E-6	2.898730E-7	1.524340E-7	1.076840E-8	1.119830E-12	14.155678	26.918855	1.030700E-6
	126.848403	1.135800E-6	2.872930E-7	1.531330E-7	1.084000E-8	1.118660E-12	14.126661	26.503044	1.021030E-6
	126.848623	1.132770E-6	2.882600E-7	1.540470E-7	1.094250E-8	1.143150E-12	14.077862	26.343157	1.020380E-6
	126.848843	1.132770E-6	2.897650E-7	1.556060E-7	1.101460E-8	1.181710E-12	14.127249	26.307356	1.022750E-6
	126.849063	1.135460E-6	2.929900E-7	1.570570E-7	1.095250E-8	1.116940E-12	14.339831	26.750970	1.028770E-6
	126.849282	1.128400E-6	2.925600E-7	1.545310E-7	1.078760E-8	1.184450E-12	14.324873	27.120027	1.031560E-6
	126.849491	1.134800E-6	2.874540E-7	1.515210E-7	1.072370E-8	1.144750E-12	14.129545	26.805487	1.023820E-6
	126.849711	1.133110E-6	2.861100E-7	1.530260E-7	1.083230E-8	1.157230E-12	14.126824	26.412673	1.015870E-6
	126.849931	1.123370E-6	2.875080E-7	1.542620E-7	1.097840E-8	1.143850E-12	14.051410	26.188516	1.018020E-6
	126.850150	1.130420E-6	2.905720E-7	1.561970E-7	1.101400E-8	1.117490E-12	14.181678	26.382059	1.021460E-6
	126.850359	1.127400E-6	2.922380E-7	1.563580E-7	1.081240E-8	1.142920E-12	14.460989	27.028042	1.028120E-6
	126.850579	1.126730E-6	2.904640E-7	1.532940E-7	1.065220E-8	1.150080E-12	14.390830	27.267982	1.028120E-6
	126.850799	1.131430E-6	2.857340E-7	1.514130E-7	1.073750E-8	1.148840E-12	14.101327	26.610850	1.019950E-6
	126.851019	1.133440E-6	2.858420E-7	1.526490E-7	1.081350E-8	1.162090E-12	14.116521	26.433810	1.013500E-6
	126.851227	1.131100E-6	2.870240E-7	1.545840E-7	1.097440E-8	1.138000E-12	14.085873	26.153958	1.017590E-6
	126.851447	1.128070E-6	2.900880E-7	1.565190E-7	1.101800E-8	1.126950E-12	14.205754	26.328553	1.022530E-6
	126.851667	1.127740E-6	2.926140E-7	1.559280E-7	1.083390E-8	1.105540E-12	14.392601	27.009110	1.029200E-6
	126.851887	1.130430E-6	2.908400E-7	1.534560E-7	1.074380E-8	1.161800E-12	14.283215	27.070496	1.030060E-6
	126.852095	1.128740E-6	2.875620E-7	1.530260E-7	1.085980E-8	1.174510E-12	14.091051	26.479493	1.020600E-6
	126.852315	1.125710E-6	2.877770E-7	1.539390E-7	1.086990E-8	1.160480E-12	14.161952	26.474669	1.018020E-6
	126.852535	1.125380E-6	2.890130E-7	1.553910E-7	1.101980E-8	1.166540E-12	14.101073	26.226701	1.021030E-6
	126.852755	1.128070E-6	2.918080E-7	1.567340E-7	1.100730E-8	1.137870E-12	14.239096	26.510407	1.025760E-6
	126.852963	1.125720E-6	2.931520E-7	1.559280E-7	1.083150E-8	1.152710E-12	14.395790	27.064765	1.030270E-6
	126.853183	1.126390E-6	2.900340E-7	1.531330E-7	1.071700E-8	1.146110E-12	14.288794	27.062984	1.028980E-6
	126.853403	1.129080E-6	2.875080E-7	1.532940E-7	1.083750E-8	1.112330E-12	14.144775	26.528997	1.018450E-6
	126.853623	1.127730E-6	2.871850E-7	1.541010E-7	1.090150E-8	1.128780E-12	14.135761	26.343622	1.018020E-6
	126.853831	1.124710E-6	2.903030E-7	1.565730E-7	1.105130E-8	1.171480E-12	14.167835	26.268674	1.021670E-6
	126.854051	1.124050E-6	2.928290E-7	1.573790E-7	1.098880E-8	1.133850E-12	14.321764	26.647951	1.027260E-6
	126.854271	1.123370E-6	2.922920E-7	1.547460E-7	1.072510E-8	1.141280E-12	14.428397	27.253079	1.030490E-6
	126.854491	1.121680E-6	2.884220E-7	1.523810E-7	1.074080E-8	1.165090E-12	14.187118	26.852935	1.023390E-6
	126.854699	1.121690E-6	2.858950E-7	1.523270E-7	1.077460E-8	1.135020E-12	14.137601	26.534164	1.014360E-6
	126.854919	1.116980E-6	2.860570E-7	1.533480E-7	1.091350E-8	1.128970E-12	14.051221	26.211298	1.034570E-6
	126.855139	1.126060E-6	2.994940E-7	1.614640E-7	1.134620E-8	1.134940E-12	14.230668	26.395974	1.030270E-6
	126.855359	1.119340E-6	2.969680E-7	1.586160E-7	1.096450E-8	1.120360E-12	14.466323	27.084500	1.030270E-6
	126.855579	1.119340E-6	2.920230E-7	1.536170E-7	1.073480E-8	1.111380E-12	14.310187	27.203395	1.026830E-6
	126.855787	1.119670E-6	2.856800E-7	1.508760E-7	1.065290E-8	1.170660E-12	14.162904	26.817111	1.017590E-6
	126.856007	1.121690E-6	2.847670E-7	1.520580E-7	1.073710E-8	1.130840E-12	14.161925	26.521780	1.011350E-6
	126.856227	1.116320E-6	2.858950E-7	1.531870E-7	1.086170E-8	1.113570E-12	14.103409	26.321386	1.015220E-6
	126.856447	1.112620E-6	2.883680E-7	1.550680E-7	1.095530E-8	1.133630E-12	14.154610	26.322237	1.018880E-6
	126.856655	1.115980E-6	2.908400E-7	1.554980E-7	1.078990E-8	1.134480E-12	14.411440	26.954837	1.023610E-6
	126.856875	1.117660E-6	2.897650E-7	1.535090E-7	1.074520E-8	1.134250E-12	14.286286	26.966925	1.026190E-6
	126.857095	1.114970E-6	2.860570E-7	1.515210E-7	1.076200E-8	1.124410E-12	14.079260	26.580282	1.015220E-6
	126.857315	1.115310E-6	2.850890E-7	1.525420E-7	1.085030E-8	1.151250E-12	14.058782	26.274757	1.009200E-6
	126.857523	1.105900E-6	2.862180E-7	1.541010E-7	1.089670E-8	1.135200E-12	14.141988	26.266484	1.012860E-6
	126.857743	1.107910E-6	2.893350E-7	1.554980E-7	1.093630E-8	1.113370E-12	14.218520	26.456388	1.016300E-6
	126.857963	1.107580E-6	2.898730E-7	1.535630E-7	1.067880E-8	1.119930E-12	14.380174	27.144717	1.019090E-6
	126.858183	1.105900E-6	2.855190E-7	1.505530E-7	1.056020E-8	1.143610E-12	14.256643	27.037272	1.015220E-6
	126.858391	1.108250E-6	2.822940E-7	1.506610E-7	1.068070E-8	1.131970E-12	14.105911	26.430290	1.004690E-6
	126.858611	1.103550E-6	2.831000E-7	1.514670E-7	1.078760E-8	1.143720E-12	14.040843	26.243094	1.004260E-6
	126.858831	1.102870E-6	2.851970E-7	1.535090E-7	1.089070E-8	1.143300E-12	14.095421	26.187206	1.006620E-6
	126.859051	1.104560E-6	2.879920E-7	1.546920E-7	1.078080E-8	1.135140E-12	14.348842	26.713416	1.012210E-6
	126.859259	1.104560E-6	2.878840E-7	1.522190E-7	1.056720E-8	1.138710E-12	14.404857	27.243168	1.014580E-6
	126.859479	1.101520E-6	2.830470E-7	1.488330E-7	1.054330E-8	1.152590E-12	14.116358	26.846149	1.006840E-6
	126.859699	1.106910E-6	2.805740E-7	1.496930E-7	1.064040E-8	1.162180E-12	14.068362	26.368746	9.995330E-7
	126.859919	1.103210E-6	2.824550E-7	1.514130E-7	1.073620E-8	1.162690E-12	14.103035	26.308657	1.000820E-6
	126.860127	1.102870E-6	2.853580E-7	1.538860E-7	1.084370E-8	1.158110E-12	14.191282	26.315556	1.004900E-6
	126.860347	1.100190E-6	2.882600E-7	1.543690E-7	1.072570E-8	1.132440E-12	14.392441	26.875635	1.011780E-6
	126.860567	1.101540E-6	2.879380E-7	1.523270E-7	1.055780E-8	1.133810E-12	14.427911	27.272538	1.014360E-6
	126.860787	1.101200E-6	2.844440E-7	1.509830E-7	1.063070E-8	1.147660E-12	14.202545	26.756846	1.006840E-6
	126.861007	1.100190E-6	2.843370E-7	1.518430E-7	1.072840E-8	1.160190E-12	14.153369	26.503206	1.000820E-6
	126.861215	1.098850E-6	2.848740E-7	1.527570E-7	1.084130E-8	1.144990E-12	14.090284	26.276738	1.002540E-6
	126.861435	1.100520E-6	2.874000E-7	1.544770E-7	1.091690E-8	1.152320E-12	14.150262	26.326155	1.006840E-6
	126.861655	1.098170E-6	2.900340E-7	1.547990E-7	1.071940E-8	1.143010E-12	14.441013	27.056925	1.011140E-6
	126.861875	1.103550E-6	2.869700E-7	1.510370E-7	1.059090E-8	1.161100E-12	14.261017	27.095903	1.010490E-6
	126.862083	1.100190E-6	2.825090E-7	1.493710E-7	1.066050E-8	1.149750E-12	14.011632	26.500539	1.001030E-6
	126.862303	1.099520E-6	2.828320E-7	1.513060E-7	1.071120E-8	1.165440E-12	14.125962	26.405258	9.969530E-7
	126.862523	1.095490E-6	2.843370E-7	1.527030E-7	1.081350E-8	1.146450E-12	14.121515	26.294632	1.000390E-6
	126.862743	1.099860E-6	2.868630E-7	1.537780E-7	1.080670E-8	1.121110E-12	14.229876	26.544921	1.005330E-6
	126.862951	1.097500E-6	2.879920E-7	1.532410E-7	1.059270E-8	1.184650E-12	14.466661	27.187780	1.009420E-6
	126.863171	1.097840E-6	2.844440E-7	1.500690E-7	1.054330E-8	1.177960E-12	14.233589	26.978650	1.005550E-6
	126.863391	1.102200E-6	2.799830E-7	1.489410E-7	1.060640E-8	1.144170E-12	14.042559	26.397552	9.956630E-7
	126.863611	1.101190E-6	2.805740E-7	1.503380E-7	1.071060E-8	1.147280E-12	14.036375	26.195918	9.954480E-7
	126.863819	1.091800E-6	2.837450E-7	1.524340E-7	1.078010E-8	1.140190E-12	14.140314	26.321184	9.984580E-7
	126.864039	1.091800E-6	2.867020E-7	1.534020E-7	1.068750E-8	1.148280E-12	14.353404	26.825918	1.004690E-6
	126.864259	1.097840E-6	2.856800E-7	1.508760E-7	1.056310E-8	1.135880E-12	14.283307	27.045091	1.007910E-6
	126.864479	1.099860E-6	2.818100E-7	1.485640E-7	1.053860E-8	1.169560E-12	14.097129	26.740744	1.002540E-6
	126.864688	1.096840E-6	2.805200E-7	1.491560E-7	1.062870E-8	1.134600E-12	14.033325	26.392691	9.960930E-7
	126.864907	1.098510E-6	2.819180E-7	1.506610E-7	1.072780E-8	1.151040E-12	14.043979	26.279200	9.980280E-7
	126.865127	1.094140E-6	2.848200E-7	1.531870E-7	1.083720E-8	1.125500E-12	14.135293	26.281696	1.001460E-6
	126.865347	1.090120E-6	2.879380E-7	1.545840E-7	1.075260E-8	1.141890E-12	14.376430	26.778454	1.008340E-6
	126.865567	1.092130E-6	2.878300E-7	1.517890E-7	1.062330E-8	1.109250E-12	14.288310	27.094217	1.009850E-6
	126.865775	1.095480E-6	2.825630E-7	1.489940E-7	1.062330E-8	1.133840E-12	14.025209	26.598420	1.001680E-6
	126.865995	1.088760E-6	2.820250E-7	1.507680E-7	1.064450E-8	1.135930E-12	14.163934	26.494903	9.950180E-7
	126.866215	1.088430E-6	2.838530E-7	1.525420E-7	1.077680E-8	1.136670E-12	14.154666	26.339266	9.980280E-7
	126.866435	1.081380E-6	2.861640E-7	1.541540E-7	1.085140E-8	1.116240E-12	14.205909	26.371159	1.000170E-6
	126.866644	1.085740E-6	2.875080E-7	1.535630E-7	1.067640E-8	1.144040E-12	14.383406	26.929302	1.004690E-6
	126.866863	1.084740E-6	2.850890E-7	1.505530E-7	1.050850E-8	1.143010E-12	14.326783	27.129371	1.004690E-6
	126.867083	1.089100E-6	2.816490E-7	1.494780E-7	1.059100E-8	1.119630E-12	14.113681	26.593240	9.948030E-7
	126.867303	1.081380E-6	2.814340E-7	1.506610E-7	1.065920E-8	1.094400E-12	14.134363	26.402920	9.905030E-7
	126.867512	1.078020E-6	2.820250E-7	1.516280E-7	1.076910E-8	1.134780E-12	14.079914	26.188354	9.932980E-7
	126.867731	1.079360E-6	2.854120E-7	1.535090E-7	1.079770E-8	1.117480E-12	14.216824	26.432666	9.971680E-7
	126.867951	1.083390E-6	2.868090E-7	1.523810E-7	1.054640E-8	1.131360E-12	14.448627	27.194967	1.000170E-6
	126.868171	1.083060E-6	2.823480E-7	1.485110E-7	1.045940E-8	1.117460E-12	14.198807	26.994665	9.963080E-7
	126.868380	1.080710E-6	2.781550E-7	1.477040E-7	1.053760E-8	1.140850E-12	14.016854	26.396428	9.857730E-7
	126.868600	1.077000E-6	2.792300E-7	1.493710E-7	1.061460E-8	1.127180E-12	14.072221	26.306220	9.857730E-7
	126.868819	1.076340E-6	2.822940E-7	1.517890E-7	1.069110E-8	1.133800E-12	14.197697	26.404580	9.894280E-7
	126.869039	1.076340E-6	2.846050E-7	1.529180E-7	1.068510E-8	1.154130E-12	14.311331	26.635689	9.963080E-7
	126.869248	1.080020E-6	2.851970E-7	1.515210E-7	1.052960E-8	1.162070E-12	14.390005	27.085264	1.001030E-6
	126.869468	1.080370E-6	2.817570E-7	1.491560E-7	1.048560E-8	1.149320E-12	14.224842	26.870851	9.965230E-7
	126.869687	1.081030E-6	2.804670E-7	1.498010E-7	1.056310E-8	1.179870E-12	14.181538	26.551581	1.006620E-6
	126.869907	1.080370E-6	2.930980E-7	1.574870E-7	1.113870E-8	1.155620E-12	14.138724	26.313484	1.007480E-6
	126.870116	1.082710E-6	2.915390E-7	1.563580E-7	1.108220E-8	1.177680E-12	14.108931	26.306961	1.001250E-6
	126.870336	1.080370E-6	2.905720E-7	1.556060E-7	1.084810E-8	1.136040E-12	14.344079	26.785520	1.002320E-6
	126.870556	1.078690E-6	2.878300E-7	1.518430E-7	1.060120E-8	1.122460E-12	14.323190	27.150700	1.003610E-6
	126.870775	1.079700E-6	2.824550E-7	1.492090E-7	1.055510E-8	1.169710E-12	14.136200	26.760050	9.948030E-7
	126.870995	1.076670E-6	2.810580E-7	1.505530E-7	1.061090E-8	1.124040E-12	14.188523	26.487668	9.868480E-7
	126.871204	1.075660E-6	2.819720E-7	1.517360E-7	1.072880E-8	1.148970E-12	14.142868	26.281784	9.905030E-7
	126.871424	1.074990E-6	2.844980E-7	1.532940E-7	1.078330E-8	1.111520E-12	14.215871	26.383204	9.948030E-7
	126.871644	1.072650E-6	2.862180E-7	1.530260E-7	1.065680E-8	1.130080E-12	14.359470	26.857781	9.993180E-7
	126.871863	1.073320E-6	2.835840E-7	1.498540E-7	1.048590E-8	1.126880E-12	14.291000	27.044317	9.986730E-7
	126.872072	1.078690E-6	2.793920E-7	1.482420E-7	1.046770E-8	1.125840E-12	14.161850	26.690868	9.877080E-7
	126.872292	1.070960E-6	2.787470E-7	1.492630E-7	1.063400E-8	1.132300E-12	14.036393	26.212808	9.840530E-7
	126.872512	1.069620E-6	2.798750E-7	1.507680E-7	1.072540E-8	1.120560E-12	14.057098	26.094598	9.872780E-7
	126.872731	1.073320E-6	2.829390E-7	1.528110E-7	1.075060E-8	1.110750E-12	14.214183	26.318438	9.937280E-7
	126.872940	1.073650E-6	2.849280E-7	1.517360E-7	1.052150E-8	1.131060E-12	14.421518	27.080549	9.980280E-7
	126.873160	1.074650E-6	2.808430E-7	1.480810E-7	1.034820E-8	1.136270E-12	14.309832	27.139309	9.937280E-7
	126.873380	1.072310E-6	2.765970E-7	1.467370E-7	1.047540E-8	1.130910E-12	14.007771	26.404433	9.842680E-7
	126.873600	1.072310E-6	2.770800E-7	1.484570E-7	1.060610E-8	1.125020E-12	13.997322	26.124589	9.838380E-7
	126.873808	1.071970E-6	2.794450E-7	1.504990E-7	1.065520E-8	1.151420E-12	14.124465	26.226162	9.877080E-7
	126.874028	1.070960E-6	2.829930E-7	1.519510E-7	1.067830E-8	1.146760E-12	14.229887	26.501690	9.945880E-7
	126.874248	1.071300E-6	2.840140E-7	1.507680E-7	1.050400E-8	1.113880E-12	14.353389	27.038652	9.988880E-7
	126.874468	1.075990E-6	2.807890E-7	1.482420E-7	1.044090E-8	1.125510E-12	14.198201	26.893180	9.952330E-7
	126.874676	1.074990E-6	2.787470E-7	1.487790E-7	1.052960E-8	1.124170E-12	14.129597	26.472706	9.862030E-7
	126.874896	1.067940E-6	2.793920E-7	1.493170E-7	1.062430E-8	1.130880E-12	14.054291	26.297450	9.859880E-7
	126.875116	1.068950E-6	2.806280E-7	1.506070E-7	1.069320E-8	1.119190E-12	14.084371	26.243594	9.874930E-7
	126.875336	1.064910E-6	2.834230E-7	1.520580E-7	1.061520E-8	1.094980E-12	14.324553	26.699732	9.935130E-7
	126.875544	1.065590E-6	2.834230E-7	1.496390E-7	1.044150E-8	1.135520E-12	14.331178	27.143897	9.960930E-7
	126.875764	1.066250E-6	2.790150E-7	1.468980E-7	1.039220E-8	1.144760E-12	14.135409	26.848502	9.915780E-7
	126.875984	1.061220E-6	2.808970E-7	1.499620E-7	1.067910E-8	1.132930E-12	14.042569	26.303434	9.840530E-7
	126.876204	1.061220E-6	2.801440E-7	1.497470E-7	1.065280E-8	1.125640E-12	14.057055	26.297687	9.825480E-7
	126.876412	1.059550E-6	2.813270E-7	1.508220E-7	1.071470E-8	1.153360E-12	14.076176	26.256171	9.846980E-7
	126.876632	1.059550E-6	2.826700E-7	1.501230E-7	1.053650E-8	1.152750E-12	14.247900	26.827694	9.892130E-7
	126.876852	1.061890E-6	2.800370E-7	1.471130E-7	1.031990E-8	1.149910E-12	14.255274	27.135631	9.894280E-7
	126.877072	1.062220E-6	2.762740E-7	1.459310E-7	1.038490E-8	1.147150E-12	14.052230	26.603434	9.795380E-7
	126.877280	1.064240E-6	2.761670E-7	1.471130E-7	1.049130E-8	1.170820E-12	14.022380	26.323430	9.737330E-7
	126.877500	1.057860E-6	2.768650E-7	1.484570E-7	1.062700E-8	1.178610E-12	13.969794	26.052978	9.776030E-7
	126.877720	1.061560E-6	2.803590E-7	1.506610E-7	1.065320E-8	1.176780E-12	14.142323	26.316881	9.819030E-7
	126.877940	1.053490E-6	2.824550E-7	1.495860E-7	1.040120E-8	1.166180E-12	14.381610	27.156001	9.866330E-7
	126.878160	1.062570E-6	2.789620E-7	1.459310E-7	1.030140E-8	1.182820E-12	14.166133	27.080009	9.849130E-7
	126.878368	1.059550E-6	2.751990E-7	1.456080E-7	1.037400E-8	1.143820E-12	14.035859	26.527762	9.769580E-7
	126.878588	1.056180E-6	2.771880E-7	1.478120E-7	1.049320E-8	1.155620E-12	14.086456	26.415965	9.758830E-7
	126.878808	1.055510E-6	2.792840E-7	1.491560E-7	1.061460E-8	1.152090E-12	14.051966	26.311307	9.799680E-7
	126.879028	1.062230E-6	2.818640E-7	1.504460E-7	1.063970E-8	1.154260E-12	14.140060	26.491724	9.846980E-7
	126.879236	1.058870E-6	2.830470E-7	1.496930E-7	1.043790E-8	1.134270E-12	14.341295	27.117236	9.885680E-7
	126.879456	1.059200E-6	2.799830E-7	1.467370E-7	1.045000E-8	1.132570E-12	14.041818	26.792632	9.849130E-7
	126.879676	1.060550E-6	2.769190E-7	1.464680E-7	1.047720E-8	1.147630E-12	13.979689	26.430630	9.765280E-7
	126.879896	1.054840E-6	2.774030E-7	1.478120E-7	1.053920E-8	1.162040E-12	14.024973	26.321068	9.769580E-7
	126.880104	1.062900E-6	2.803050E-7	1.499620E-7	1.063510E-8	1.154380E-12	14.100667	26.356593	9.786780E-7
	126.880324	1.059550E-6	2.818640E-7	1.502840E-7	1.055410E-8	1.124560E-12	14.239395	26.706588	9.838380E-7
	126.880544	1.057520E-6	2.807890E-7	1.474890E-7	1.035350E-8	1.169110E-12	14.245328	27.120201	9.857730E-7
	126.880764	1.053160E-6	2.767040E-7	1.455010E-7	1.035760E-8	1.174800E-12	14.047752	26.715069	9.782480E-7
	126.880972	1.053830E-6	2.756290E-7	1.463070E-7	1.037700E-8	1.152770E-12	14.099162	26.561530	9.702930E-7
	126.881192	1.058190E-6	2.761130E-7	1.472210E-7	1.053080E-8	1.147480E-12	13.980040	26.219565	9.730880E-7
	126.881412	1.054500E-6	2.783700E-7	1.491020E-7	1.064150E-8	1.122930E-12	14.011371	26.158906	9.776030E-7
	126.881632	1.054500E-6	2.808430E-7	1.499620E-7	1.042710E-8	1.144620E-12	14.381947	26.933951	9.825480E-7
	126.881840	1.050810E-6	2.789080E-7	1.466830E-7	1.028770E-8	1.134230E-12	14.258095	27.110822	9.831930E-7
	126.882060	1.054840E-6	2.740700E-7	1.443180E-7	1.030890E-8	1.146540E-12	13.999360	26.585766	9.737330E-7
	126.882280	1.051140E-6	2.735330E-7	1.459310E-7	1.038640E-8	1.119040E-12	14.050200	26.335689	9.690030E-7
	126.882500	1.050130E-6	2.757900E-7	1.480810E-7	1.054680E-8	1.142170E-12	14.040372	26.149164	9.741630E-7
	126.882708	1.055170E-6	2.788540E-7	1.495860E-7	1.056250E-8	1.125020E-12	14.161988	26.400379	9.788930E-7
	126.882928	1.049460E-6	2.810040E-7	1.493170E-7	1.044890E-8	1.144900E-12	14.290212	26.893166	9.842680E-7
	126.883148	1.056510E-6	2.792300E-7	1.471130E-7	1.035350E-8	1.146950E-12	14.209011	26.969624	9.855580E-7
	126.883368	1.053490E-6	2.767580E-7	1.466290E-7	1.039850E-8	1.158940E-12	14.100976	26.615185	9.773880E-7
	126.883588	1.053160E-6	2.767040E-7	1.475430E-7	1.053600E-8	1.161950E-12	14.003702	26.262718	9.750230E-7
	126.883796	1.052830E-6	2.783170E-7	1.492630E-7	1.062300E-8	1.113550E-12	14.050927	26.199473	9.778180E-7
	126.884016	1.048780E-6	2.804670E-7	1.503920E-7	1.058270E-8	1.160800E-12	14.211118	26.502405	9.814730E-7
	126.884236	1.047440E-6	2.818640E-7	1.492090E-7	1.042000E-8	1.125600E-12	14.319482	27.050288	9.849130E-7
	126.884456	1.051140E-6	2.772420E-7	1.454470E-7	1.031920E-8	1.103360E-12	14.094794	26.866618	9.823330E-7
	126.884664	1.050130E-6	2.741780E-7	1.459310E-7	1.039750E-8	1.115100E-12	14.035201	26.369608	9.728730E-7
	126.884884	1.045100E-6	2.753070E-7	1.473820E-7	1.049230E-8	1.139930E-12	14.046682	26.238956	9.724430E-7
	126.885104	1.045760E-6	2.775640E-7	1.491020E-7	1.057660E-8	1.131640E-12	14.097347	26.243216	9.745930E-7
	126.885324	1.043420E-6	2.794450E-7	1.494780E-7	1.049120E-8	1.149650E-12	14.247941	26.636133	9.791080E-7
	126.885532	1.041070E-6	2.789620E-7	1.471130E-7	1.027050E-8	1.120340E-12	14.323840	27.161482	9.821180E-7
	126.885752	1.044090E-6	2.746620E-7	1.446940E-7	1.024930E-8	1.123830E-12	14.117452	26.798123	9.735180E-7
	126.885972	1.046440E-6	2.730490E-7	1.452860E-7	1.034750E-8	1.126800E-12	14.040686	26.387920	9.651330E-7
	126.886192	1.040730E-6	2.734250E-7	1.461460E-7	1.043010E-8	1.135820E-12	14.011946	26.214993	9.672830E-7
	126.886400	1.039720E-6	2.759520E-7	1.484570E-7	1.052560E-8	1.132670E-12	14.104374	26.217223	9.705080E-7
	126.886620	1.041730E-6	2.789620E-7	1.495860E-7	1.045540E-8	1.166050E-12	14.307057	26.681141	9.767430E-7
	126.886840	1.040730E-6	2.772950E-7	1.456080E-7	1.021780E-8	1.167360E-12	14.250426	27.138425	9.773880E-7
	126.887060	1.042410E-6	2.726730E-7	1.435660E-7	1.023060E-8	1.131330E-12	14.032999	26.652689	9.683580E-7
	126.887269	1.043740E-6	2.725650E-7	1.450710E-7	1.033240E-8	1.128750E-12	14.040397	26.379641	9.642730E-7
	126.887488	1.038050E-6	2.751450E-7	1.472740E-7	1.048450E-8	1.127820E-12	14.046831	26.243025	9.677130E-7
	126.887708	1.036360E-6	2.785320E-7	1.488330E-7	1.057260E-8	1.116760E-12	14.077237	26.344702	9.726580E-7
	126.887928	1.041400E-6	2.800900E-7	1.487260E-7	1.042980E-8	1.147610E-12	14.259717	26.854781	9.776030E-7
	126.888137	1.036020E-6	2.781550E-7	1.465220E-7	1.028260E-8	1.160650E-12	14.249509	27.051038	9.763130E-7
	126.888356	1.038050E-6	2.747690E-7	1.457690E-7	1.033950E-8	1.124890E-12	14.098264	26.574689	9.674980E-7
	126.888576	1.037040E-6	2.748770E-7	1.462530E-7	1.044230E-8	1.152830E-12	14.005822	26.323415	9.640580E-7
	126.888796	1.031320E-6	2.756830E-7	1.475430E-7	1.054100E-8	1.136520E-12	13.997059	26.153401	9.666380E-7
	126.889005	1.032330E-6	2.784240E-7	1.495860E-7	1.051610E-8	1.149970E-12	14.224475	26.475975	9.707230E-7
	126.889225	1.034680E-6	2.800370E-7	1.486180E-7	1.033130E-8	1.143180E-12	14.385218	27.105689	9.748080E-7
	126.889444	1.039720E-6	2.774030E-7	1.461460E-7	1.033370E-8	1.121630E-12	14.142659	26.844499	9.743780E-7
	126.889664	1.041730E-6	2.736400E-7	1.453930E-7	1.035260E-8	1.143290E-12	14.044105	26.432007	9.631980E-7
	126.889884	1.037040E-6	2.739090E-7	1.465220E-7	1.040290E-8	1.158870E-12	14.084726	26.330062	9.619080E-7
	126.890093	1.035010E-6	2.758440E-7	1.483490E-7	1.050470E-8	1.171570E-12	14.122155	26.259103	9.649180E-7
	126.890312	1.034000E-6	2.789080E-7	1.488330E-7	1.043450E-8	1.142240E-12	14.263549	26.729407	9.700780E-7
	126.890532	1.035360E-6	2.777790E-7	1.458770E-7	1.023500E-8	1.134480E-12	14.252760	27.140107	9.741630E-7
	126.890752	1.038050E-6	2.733180E-7	1.440490E-7	1.021150E-8	1.157600E-12	14.106547	26.765705	9.664230E-7
	126.890961	1.035690E-6	2.720280E-7	1.449630E-7	1.033640E-8	1.151440E-12	14.024515	26.317480	9.580380E-7
	126.891181	1.033670E-6	2.731570E-7	1.462530E-7	1.043850E-8	1.127840E-12	14.010921	26.168223	9.597580E-7
	126.891400	1.030980E-6	2.751990E-7	1.473280E-7	1.045540E-8	1.146520E-12	14.091092	26.321231	9.644880E-7
	126.891620	1.028970E-6	2.774570E-7	1.482420E-7	1.043880E-8	1.146820E-12	14.201058	26.579396	9.702930E-7
	126.891829	1.038030E-6	2.769190E-7	1.462530E-7	1.019800E-8	1.141740E-12	14.341341	27.154246	9.735180E-7
	126.892049	1.038380E-6	2.740700E-7	1.446410E-7	1.028910E-8	1.134400E-12	14.057692	26.636926	9.674980E-7
	126.892269	1.029650E-6	2.738550E-7	1.456620E-7	1.035960E-8	1.140040E-12	14.060581	26.434901	9.625530E-7
	126.892488	1.029650E-6	2.749300E-7	1.472210E-7	1.047380E-8	1.120980E-12	14.056121	26.249308	9.666380E-7
	126.892697	1.034680E-6	2.779940E-7	1.495860E-7	1.053430E-8	1.142630E-12	14.199899	26.389414	9.696480E-7
	126.892917	1.032670E-6	2.799290E-7	1.492630E-7	1.037160E-8	1.128640E-12	14.391511	26.989953	9.737330E-7
	126.893137	1.028640E-6	2.770270E-7	1.457160E-7	1.024100E-8	1.112490E-12	14.228689	27.050776	9.726580E-7
	126.893356	1.031660E-6	2.728880E-7	1.446410E-7	1.026760E-8	1.151640E-12	14.087128	26.577584	9.649180E-7
	126.893565	1.029640E-6	2.735330E-7	1.463070E-7	1.039490E-8	1.117080E-12	14.074883	26.314154	9.610480E-7
	126.893785	1.028970E-6	2.747150E-7	1.479190E-7	1.047180E-8	1.107460E-12	14.125461	26.233790	9.644880E-7
	126.894005	1.029640E-6	2.775100E-7	1.494240E-7	1.050640E-8	1.129470E-12	14.222188	26.413424	9.692180E-7
	126.894225	1.029640E-6	2.781020E-7	1.478660E-7	1.026520E-8	1.140390E-12	14.404590	27.091727	9.733030E-7
	126.894444	1.026950E-6	2.740700E-7	1.448560E-7	1.016910E-8	1.147550E-12	14.244722	26.951254	9.687880E-7
	126.894653	1.028970E-6	2.710600E-7	1.452320E-7	1.032060E-8	1.138020E-12	14.072050	26.263977	9.597580E-7
	126.894873	1.022590E-6	2.722430E-7	1.461460E-7	1.036120E-8	1.128220E-12	14.105123	26.275238	9.595430E-7
	126.895093	1.024260E-6	2.740170E-7	1.478120E-7	1.042160E-8	1.124280E-12	14.183235	26.293180	9.614780E-7
	126.895313	1.026620E-6	2.760590E-7	1.488870E-7	1.034650E-8	1.122310E-12	14.390084	26.681390	9.670680E-7
	126.895521	1.026960E-6	2.760050E-7	1.469520E-7	1.017240E-8	1.147680E-12	14.446148	27.132732	9.700780E-7
	126.895741	1.021590E-6	2.713830E-7	1.435120E-7	1.013820E-8	1.096700E-12	14.155570	26.768361	9.625530E-7
	126.895961	1.023930E-6	2.691250E-7	1.445330E-7	1.022860E-8	1.120020E-12	14.130282	26.311030	9.552430E-7
	126.896181	1.021910E-6	2.713290E-7	1.460920E-7	1.034410E-8	1.170610E-12	14.123220	26.230315	9.571780E-7
	126.896389	1.018900E-6	2.740700E-7	1.482960E-7	1.048190E-8	1.123700E-12	14.147817	26.146977	9.606180E-7
	126.896609	1.017210E-6	2.768650E-7	1.485640E-7	1.037500E-8	1.120700E-12	14.319422	26.685783	9.662080E-7
	126.896829	1.017550E-6	2.758980E-7	1.463610E-7	1.024000E-8	1.168660E-12	14.293066	26.943164	9.696480E-7
	126.897049	1.021240E-6	2.729950E-7	1.449090E-7	1.026590E-8	1.117620E-12	14.115567	26.592408	9.619080E-7
	126.897257	1.017880E-6	2.729950E-7	1.461460E-7	1.030480E-8	1.149540E-12	14.182323	26.492023	9.545980E-7
	126.897477	1.016870E-6	2.729950E-7	1.466290E-7	1.045260E-8	1.137740E-12	14.027993	26.117425	9.573930E-7
	126.897697	1.013180E-6	2.750380E-7	1.482960E-7	1.047310E-8	1.178660E-12	14.159704	26.261374	9.606180E-7
	126.897917	1.010160E-6	2.771340E-7	1.485110E-7	1.028600E-8	1.132900E-12	14.438168	26.942835	9.644880E-7
	126.898125	1.016880E-6	2.750380E-7	1.453930E-7	1.018020E-8	1.135830E-12	14.281939	27.016954	9.629830E-7
	126.898345	1.020910E-6	2.707920E-7	1.435660E-7	1.020300E-8	1.164540E-12	14.070960	26.540429	9.545980E-7
	126.898565	1.013850E-6	2.710600E-7	1.448020E-7	1.036990E-8	1.150620E-12	13.963683	26.139114	9.513730E-7
	126.898785	1.009830E-6	2.724580E-7	1.469520E-7	1.042710E-8	1.154090E-12	14.093276	26.129796	9.541680E-7
	126.899005	1.011500E-6	2.756830E-7	1.482420E-7	1.040200E-8	1.153280E-12	14.251298	26.502884	9.578230E-7
	126.899213	1.014860E-6	2.762740E-7	1.459840E-7	1.021280E-8	1.142990E-12	14.294219	27.051739	9.614780E-7
	126.899433	1.015870E-6	2.717050E-7	1.425980E-7	1.014120E-8	1.099200E-12	14.061255	26.792194	9.567480E-7
	126.899653	1.018900E-6	2.684270E-7	1.430820E-7	1.021480E-8	1.171350E-12	14.007323	26.278243	9.496530E-7
	126.899873	1.014860E-6	2.711140E-7	1.449630E-7	1.029780E-8	1.132840E-12	14.077084	26.327371	9.485780E-7
	126.900081	1.016870E-6	2.724580E-7	1.455540E-7	1.039110E-8	1.141960E-12	14.007564	26.220323	9.509430E-7
	126.900301	1.014520E-6	2.742850E-7	1.466830E-7	1.034280E-8	1.157180E-12	14.182136	26.519414	9.563180E-7
	126.900521	1.017550E-6	2.741780E-7	1.454470E-7	1.013450E-8	1.153150E-12	14.351670	27.053925	9.610480E-7
	126.900741	1.015870E-6	2.709530E-7	1.425980E-7	1.009150E-8	1.129970E-12	14.130506	26.849626	9.556730E-7
	126.900949	1.014190E-6	2.694480E-7	1.429210E-7	1.019600E-8	1.117320E-12	14.017360	26.426834	9.496530E-7
	126.901169	1.018560E-6	2.710070E-7	1.446940E-7	1.034240E-8	1.146710E-12	13.990370	26.203492	9.524480E-7
	126.901389	1.013860E-6	2.740700E-7	1.469520E-7	1.047750E-8	1.121950E-12	14.025483	26.157958	9.548130E-7
	126.901609	1.014180E-6	2.764350E-7	1.479730E-7	1.033260E-8	1.134210E-12	14.320984	26.753673	9.606180E-7
	126.901817	1.015870E-6	2.759520E-7	1.452860E-7	1.013750E-8	1.147720E-12	14.331541	27.220912	9.631980E-7
	126.902037	1.016880E-6	2.712220E-7	1.428130E-7	1.022620E-8	1.109610E-12	13.965403	26.522266	9.561030E-7
	126.902257	1.015540E-6	2.706840E-7	1.441570E-7	1.025540E-8	1.142770E-12	14.056692	26.394290	9.492230E-7
	126.902477	1.011840E-6	2.718670E-7	1.457160E-7	1.035450E-8	1.102310E-12	14.072722	26.255927	9.524480E-7
	126.902685	1.013850E-6	2.740170E-7	1.474890E-7	1.045900E-8	1.143940E-12	14.101635	26.199159	9.565330E-7
	126.902905	1.011840E-6	2.764350E-7	1.470590E-7	1.025010E-8	1.107480E-12	14.347080	26.969005	9.610480E-7
	126.903125	1.013510E-6	2.734250E-7	1.436730E-7	1.010670E-8	1.133310E-12	14.215619	27.053836	9.610480E-7
	126.903345	1.012850E-6	2.692870E-7	1.420070E-7	1.014930E-8	1.118940E-12	13.991802	26.532569	9.509430E-7
	126.903553	1.010490E-6	2.693400E-7	1.437270E-7	1.024930E-8	1.124660E-12	14.023104	26.278868	9.472880E-7
	126.903773	1.010830E-6	2.711140E-7	1.449090E-7	1.035250E-8	1.101770E-12	13.997489	26.188264	9.498680E-7
	126.903993	1.008480E-6	2.735870E-7	1.457690E-7	1.037260E-8	1.136270E-12	14.053275	26.375933	9.554580E-7
	126.904213	1.010830E-6	2.741240E-7	1.450710E-7	1.016000E-8	1.109920E-12	14.278642	26.980709	9.588980E-7
	126.904421	1.010830E-6	2.705230E-7	1.421140E-7	1.000990E-8	1.125600E-12	14.197345	27.025545	9.552430E-7
	126.904641	1.014860E-6	2.668140E-7	1.420610E-7	1.012680E-8	1.129610E-12	14.028222	26.347316	9.459980E-7
	126.904861	1.010490E-6	2.676200E-7	1.428670E-7	1.024500E-8	1.110030E-12	13.945046	26.122011	9.462130E-7
	126.905081	1.011160E-6	2.698780E-7	1.448020E-7	1.037000E-8	1.125000E-12	13.963549	26.024879	9.509430E-7
	126.905301	1.007130E-6	2.726190E-7	1.458770E-7	1.027380E-8	1.120040E-12	14.198933	26.535362	9.558880E-7
	126.905509	1.008820E-6	2.739090E-7	1.453390E-7	1.016510E-8	1.161020E-12	14.297843	26.946021	9.606180E-7
	126.905729	1.009490E-6	2.712220E-7	1.433510E-7	1.015360E-8	1.101690E-12	14.118244	26.711905	9.580380E-7
	126.905949	1.010160E-6	2.698780E-7	1.435120E-7	1.019300E-8	1.133290E-12	14.079466	26.476798	9.509430E-7
	126.906169	1.005450E-6	2.705230E-7	1.447480E-7	1.033710E-8	1.136570E-12	14.002767	26.170106	9.509430E-7
	126.906377	1.003770E-6	2.726190E-7	1.463070E-7	1.044730E-8	1.126380E-12	14.004288	26.094685	9.520180E-7
	126.906597	1.004790E-6	2.748770E-7	1.472210E-7	1.030480E-8	1.134930E-12	14.286643	26.674656	9.571780E-7
	126.906817	1.002760E-6	2.741240E-7	1.444790E-7	1.011930E-8	1.143570E-12	14.277569	27.089226	9.588980E-7
	126.907037	1.006800E-6	2.691250E-7	1.420610E-7	1.013010E-8	1.132640E-12	14.023652	26.566865	9.580380E-7
	126.907245	1.001760E-6	2.763280E-7	1.488330E-7	1.056580E-8	1.131520E-12	14.086297	26.153060	9.548130E-7
	126.907465	1.001090E-6	2.749840E-7	1.471670E-7	1.047450E-8	1.134210E-12	14.050026	26.252709	9.502980E-7
	126.907685	1.001760E-6	2.741780E-7	1.468440E-7	1.044260E-8	1.138540E-12	14.062015	26.255722	9.511580E-7
	126.907905	9.984040E-7	2.740170E-7	1.460380E-7	1.020440E-8	1.143400E-12	14.311277	26.852828	9.545980E-7
	126.908113	9.960500E-7	2.716520E-7	1.430820E-7	1.004470E-8	1.135810E-12	14.244527	27.044312	9.535230E-7
	126.908333	1.003430E-6	2.680500E-7	1.418990E-7	1.010620E-8	1.121960E-12	14.040787	26.523322	9.436330E-7
	126.908553	9.950390E-7	2.679970E-7	1.434580E-7	1.022010E-8	1.118680E-12	14.036849	26.222542	9.391180E-7
	126.908773	9.970600E-7	2.686950E-7	1.443180E-7	1.027730E-8	1.136030E-12	14.042404	26.144513	9.425580E-7
	126.908981	9.957170E-7	2.714370E-7	1.450170E-7	1.032370E-8	1.153550E-12	14.046999	26.292608	9.479330E-7
	126.909201	1.000080E-6	2.725650E-7	1.443180E-7	1.009560E-8	1.127040E-12	14.295138	26.998395	9.520180E-7
	126.909421	1.003440E-6	2.691790E-7	1.422220E-7	9.990060E-9	1.136440E-12	14.236351	26.944683	9.502980E-7
	126.909641	1.004790E-6	2.668140E-7	1.423830E-7	1.010790E-8	1.152770E-12	14.086309	26.396581	9.432030E-7
	126.909850	1.001090E-6	2.684800E-7	1.434040E-7	1.022950E-8	1.139610E-12	14.018671	26.245662	9.427730E-7
	126.910069	1.000740E-6	2.699850E-7	1.450170E-7	1.036770E-8	1.157720E-12	13.987384	26.040973	9.466430E-7
	126.910289	1.003430E-6	2.728880E-7	1.471130E-7	1.030650E-8	1.160090E-12	14.273808	26.477272	9.509430E-7
	126.910509	9.977270E-7	2.745540E-7	1.459840E-7	1.017210E-8	1.137500E-12	14.351412	26.990887	9.554580E-7
	126.910718	1.003100E-6	2.713290E-7	1.433510E-7	1.014130E-8	1.126890E-12	14.135367	26.754854	9.511580E-7
	126.910938	9.990810E-7	2.689100E-7	1.430280E-7	1.016140E-8	1.174000E-12	14.075620	26.463873	9.429880E-7
	126.911157	9.916850E-7	2.690720E-7	1.436190E-7	1.028500E-8	1.108850E-12	13.963928	26.161595	9.438480E-7
	126.911377	9.957170E-7	2.713290E-7	1.456620E-7	1.032830E-8	1.126950E-12	14.103192	26.270441	9.447080E-7
	126.911586	9.923520E-7	2.734790E-7	1.460920E-7	1.023230E-8	1.136340E-12	14.277533	26.727031	9.496530E-7
	126.911806	9.997480E-7	2.723500E-7	1.434580E-7	1.007370E-8	1.146770E-12	14.240845	27.035747	9.524480E-7
	126.912025	9.950500E-7	2.678890E-7	1.407710E-7	1.007330E-8	1.121270E-12	13.974666	26.593966	9.449230E-7
	126.912245	9.990710E-7	2.664380E-7	1.414160E-7	1.015770E-8	1.128600E-12	13.922049	26.230151	9.369680E-7
	126.912454	9.886650E-7	2.670290E-7	1.429210E-7	1.021540E-8	1.132840E-12	13.990739	26.139848	9.401930E-7
	126.912674	9.947060E-7	2.700930E-7	1.451780E-7	1.030180E-8	1.144180E-12	14.092489	26.218040	9.442780E-7
	126.912894	9.957170E-7	2.723500E-7	1.452320E-7	1.018250E-8	1.107770E-12	14.262902	26.746870	9.490080E-7
	126.913113	9.916850E-7	2.697700E-7	1.417380E-7	9.998120E-9	1.153230E-12	14.176465	26.982073	9.492230E-7
	126.913322	9.940400E-7	2.654700E-7	1.398570E-7	1.005350E-8	1.106560E-12	13.911275	26.405729	9.395480E-7
	126.913542	9.923630E-7	2.652550E-7	1.416840E-7	1.007270E-8	1.138180E-12	14.066139	26.334051	9.337430E-7
	126.913762	9.873100E-7	2.663300E-7	1.427590E-7	1.021780E-8	1.131380E-12	13.971599	26.065298	9.380430E-7
	126.913981	9.930290E-7	2.688030E-7	1.434040E-7	1.020770E-8	1.125160E-12	14.048610	26.333356	9.423430E-7
	126.914201	9.866440E-7	2.703620E-7	1.432970E-7	1.007380E-8	1.112810E-12	14.224722	26.838135	9.475030E-7
	126.914410	9.936960E-7	2.690720E-7	1.410930E-7	1.002130E-8	1.119860E-12	14.079311	26.850009	9.483630E-7
	126.914630	9.936960E-7	2.662770E-7	1.406630E-7	1.008680E-8	1.113620E-12	13.945255	26.398560	9.524480E-7
	126.914850	9.940400E-7	2.755220E-7	1.473280E-7	1.052910E-8	1.099050E-12	13.992459	26.167669	9.545980E-7
	126.915069	9.943730E-7	2.745540E-7	1.467910E-7	1.050470E-8	1.104420E-12	13.973840	26.136301	9.522330E-7
	126.915278	9.923630E-7	2.762200E-7	1.477040E-7	1.042740E-8	1.127700E-12	14.164988	26.489825	9.533080E-7
	126.915498	9.873210E-7	2.764350E-7	1.461990E-7	1.020910E-8	1.093360E-12	14.320459	27.077313	9.561030E-7
	126.915718	9.903420E-7	2.718130E-7	1.427590E-7	1.016640E-8	1.120120E-12	14.042237	26.736406	9.558880E-7
	126.915937	9.903420E-7	2.743930E-7	1.471670E-7	1.048830E-8	1.130810E-12	14.031540	26.161818	9.520180E-7
	126.916146	9.937060E-7	2.738550E-7	1.465220E-7	1.041260E-8	1.143110E-12	14.071606	26.300348	9.614780E-7
	126.916366	9.910190E-7	2.815420E-7	1.509830E-7	1.071960E-8	1.123330E-12	14.084761	26.264226	9.511580E-7
	126.916586	9.842890E-7	2.765430E-7	1.471130E-7	1.032570E-8	1.107140E-12	14.247267	26.782010	9.483630E-7
	126.916806	9.836230E-7	2.720820E-7	1.431890E-7	1.007770E-8	1.132630E-12	14.208500	26.998422	9.481480E-7
	126.917014	9.846330E-7	2.675670E-7	1.410390E-7	1.002870E-8	1.137000E-12	14.063538	26.680128	9.397630E-7
	126.917234	9.859770E-7	2.660620E-7	1.413620E-7	1.004080E-8	1.131650E-12	14.078759	26.498088	9.305180E-7
	126.917454	9.826120E-7	2.659000E-7	1.417380E-7	1.022450E-8	1.114180E-12	13.862585	26.006162	9.324530E-7
	126.917674	9.799250E-7	2.675670E-7	1.433510E-7	1.025380E-8	1.088040E-12	13.980280	26.094424	9.371830E-7
	126.917882	9.812690E-7	2.707380E-7	1.447480E-7	1.016840E-8	1.143220E-12	14.235081	26.625428	9.414830E-7
	126.918102	9.779150E-7	2.695550E-7	1.416840E-7	9.945450E-9	1.116920E-12	14.246113	27.103349	9.414830E-7
	126.918322	9.822790E-7	2.647180E-7	1.390510E-7	9.972220E-9	1.130480E-12	13.943836	26.545544	9.318080E-7
	126.918542	9.806020E-7	2.634280E-7	1.399640E-7	1.002460E-8	1.131960E-12	13.962053	26.278156	9.277230E-7
	126.918750	9.779150E-7	2.659000E-7	1.428130E-7	1.018320E-8	1.150420E-12	14.024373	26.111635	9.328830E-7
	126.918970	9.832900E-7	2.698780E-7	1.449630E-7	1.027360E-8	1.154130E-12	14.110244	26.269078	9.367530E-7
	126.919190	9.765710E-7	2.718130E-7	1.439420E-7	1.014560E-8	1.131000E-12	14.187628	26.791220	9.419130E-7
	126.919410	9.846330E-7	2.687490E-7	1.408780E-7	1.001020E-8	1.150780E-12	14.073445	26.847516	9.416980E-7
	126.919630	9.802580E-7	2.663840E-7	1.413080E-7	1.014220E-8	1.140170E-12	13.932677	26.264913	9.324530E-7
	126.919838	9.819460E-7	2.676200E-7	1.425980E-7	1.016530E-8	1.125370E-12	14.027919	26.326818	9.311630E-7
	126.920058	9.792580E-7	2.685340E-7	1.426520E-7	1.023160E-8	1.129770E-12	13.942296	26.245553	9.335280E-7
	126.920278	9.799250E-7	2.699320E-7	1.433510E-7	1.018860E-8	1.107480E-12	14.069745	26.493532	9.369680E-7
	126.920498	9.839560E-7	2.709530E-7	1.428670E-7	1.004650E-8	1.113790E-12	14.220574	26.969890	9.414830E-7
	126.920706	9.809350E-7	2.681580E-7	1.410390E-7	9.980710E-9	1.134570E-12	14.131159	26.867628	9.384730E-7
	126.920926	9.859770E-7	2.660080E-7	1.407710E-7	1.003900E-8	1.151740E-12	14.022413	26.497460	9.300880E-7
	126.921146	9.856440E-7	2.658470E-7	1.412540E-7	1.017010E-8	1.147740E-12	13.889146	26.140058	9.305180E-7
	126.921366	9.822790E-7	2.677820E-7	1.439420E-7	1.026840E-8	1.124830E-12	14.017958	26.078260	9.337430E-7
	126.921574	9.799250E-7	2.704690E-7	1.450710E-7	1.017580E-8	1.125340E-12	14.256471	26.579630	9.389030E-7
	126.921794	9.816020E-7	2.703620E-7	1.431890E-7	9.985440E-9	1.129040E-12	14.339779	27.075622	9.406230E-7
	126.922014	9.799360E-7	2.656850E-7	1.392660E-7	9.956200E-9	1.117930E-12	13.987867	26.685382	9.320230E-7
	126.922234	9.762270E-7	2.634280E-7	1.394810E-7	9.999840E-9	1.125890E-12	13.948323	26.343221	9.242830E-7
	126.922442	9.775710E-7	2.638580E-7	1.407710E-7	1.011570E-8	1.119930E-12	13.916091	26.084008	9.266480E-7
	126.922662	9.772480E-7	2.671900E-7	1.431890E-7	1.015060E-8	1.134480E-12	14.106457	26.322582	9.298730E-7
	126.922882	9.816020E-7	2.694480E-7	1.426520E-7	1.003380E-8	1.133250E-12	14.217146	26.854033	9.348180E-7
	126.923102	9.735390E-7	2.673520E-7	1.398570E-7	9.902450E-9	1.133970E-12	14.123474	26.998571	9.363230E-7
	126.923310	9.779150E-7	2.635350E-7	1.382980E-7	9.965980E-9	1.110310E-12	13.877010	26.443461	9.303030E-7
	126.923530	9.772370E-7	2.641800E-7	1.406630E-7	1.003030E-8	1.117680E-12	14.023808	26.338195	9.272930E-7
	126.923750	9.769040E-7	2.660080E-7	1.420070E-7	1.017880E-8	1.095410E-12	13.951252	26.133532	9.326680E-7
	126.923970	9.782480E-7	2.690180E-7	1.439420E-7	1.028700E-8	1.114340E-12	13.992612	26.151259	9.358930E-7
	126.924178	9.765710E-7	2.712220E-7	1.442110E-7	1.011530E-8	1.104560E-12	14.256720	26.813046	9.408380E-7
	126.924398	9.745500E-7	2.692870E-7	1.415770E-7	9.999520E-9	1.113800E-12	14.158380	26.929993	9.393330E-7
	126.924618	9.809350E-7	2.651480E-7	1.399110E-7	1.000580E-8	1.105560E-12	13.982990	26.499430	9.298730E-7
	126.924838	9.758940E-7	2.644490E-7	1.409320E-7	1.013750E-8	1.126810E-12	13.902047	26.086215	9.272930E-7
	126.925046	9.732170E-7	2.662230E-7	1.427590E-7	1.020940E-8	1.113460E-12	13.983094	26.076263	9.307330E-7
	126.925266	9.752270E-7	2.689640E-7	1.437270E-7	1.018560E-8	1.111460E-12	14.110803	26.406299	9.335280E-7
	126.925486	9.742170E-7	2.691250E-7	1.419530E-7	9.954800E-9	1.114140E-12	14.259754	27.034697	9.373980E-7
	126.925706	9.718730E-7	2.648250E-7	1.392660E-7	9.909870E-9	1.124500E-12	14.053262	26.723358	9.339580E-7
	126.925926	9.742170E-7	2.626220E-7	1.396420E-7	9.992100E-9	1.106940E-12	13.975240	26.282964	9.251430E-7
	126.926134	9.681750E-7	2.638040E-7	1.408240E-7	1.006230E-8	1.109320E-12	13.995210	26.217068	9.255730E-7
	126.926354	9.725400E-7	2.657390E-7	1.421680E-7	1.017580E-8	1.135930E-12	13.971187	26.114802	9.277230E-7
	126.926574	9.648100E-7	2.679970E-7	1.434580E-7	1.011740E-8	1.113060E-12	14.179335	26.488722	9.326680E-7
	126.926794	9.661540E-7	2.682650E-7	1.418460E-7	9.899980E-9	1.095030E-12	14.327908	27.097529	9.352480E-7
	126.927002	9.658210E-7	2.635890E-7	1.382980E-7	9.891700E-9	1.095780E-12	13.981217	26.647492	9.270780E-7
	126.927222	9.701850E-7	2.618150E-7	1.389970E-7	9.910400E-9	1.117910E-12	14.025367	26.418207	9.186930E-7
	126.927442	9.658210E-7	2.615470E-7	1.398570E-7	1.011030E-8	1.122120E-12	13.833121	25.869361	9.212730E-7
	126.927662	9.658210E-7	2.651480E-7	1.421680E-7	1.015770E-8	1.111930E-12	13.996082	26.103153	9.249280E-7
	126.927870	9.664870E-7	2.688570E-7	1.434580E-7	1.005320E-8	1.089200E-12	14.269884	26.743425	9.307330E-7
	126.928090	9.617900E-7	2.675670E-7	1.403410E-7	9.907720E-9	1.118820E-12	14.164813	27.005911	9.330980E-7
	126.928310	9.668310E-7	2.636430E-7	1.391040E-7	9.971680E-9	1.166890E-12	13.949906	26.439176	9.264330E-7
	126.928530	9.691750E-7	2.643950E-7	1.412010E-7	1.004200E-8	1.113680E-12	14.061044	26.328919	9.212730E-7
	126.928738	9.627890E-7	2.660080E-7	1.417920E-7	1.013820E-8	1.088670E-12	13.985915	26.238188	9.251430E-7
	126.928958	9.614560E-7	2.674590E-7	1.429740E-7	1.026750E-8	1.117060E-12	13.924909	26.049087	9.272930E-7
	126.929178	9.634670E-7	2.692870E-7	1.435120E-7	1.003370E-8	1.138030E-12	14.302999	26.838255	9.313780E-7
	126.929398	9.668210E-7	2.677280E-7	1.409860E-7	9.936740E-9	1.120660E-12	14.188356	26.943243	9.298730E-7
	126.929606	9.681640E-7	2.638040E-7	1.389970E-7	9.949750E-9	1.124120E-12	13.969899	26.513631	9.204130E-7
	126.929826	9.604350E-7	2.633200E-7	1.397490E-7	1.000920E-8	1.145600E-12	13.962055	26.307797	9.174030E-7
	126.930046	9.607790E-7	2.634820E-7	1.406090E-7	1.015900E-8	1.137570E-12	13.840831	25.935820	9.208430E-7
	126.930266	9.664980E-7	2.670830E-7	1.429210E-7	1.013390E-8	1.121720E-12	14.103257	26.355401	9.240680E-7
	126.930475	9.644770E-7	2.688570E-7	1.417380E-7	9.928680E-9	1.136230E-12	14.275614	27.078826	9.285830E-7
	126.930694	9.611120E-7	2.645570E-7	1.379760E-7	9.902340E-9	1.145900E-12	13.933676	26.716614	9.257880E-7
	126.930914	9.638000E-7	2.607400E-7	1.381910E-7	9.959530E-9	1.137360E-12	13.875253	26.179950	9.174030E-7
	126.931134	9.661540E-7	2.626750E-7	1.406090E-7	1.003900E-8	1.107750E-12	14.006276	26.165455	9.176180E-7
	126.931343	9.644770E-7	2.653090E-7	1.423830E-7	1.011240E-8	1.159710E-12	14.080040	26.236007	9.201980E-7
	126.931562	9.644770E-7	2.665990E-7	1.422760E-7	1.010080E-8	1.121190E-12	14.085617	26.393850	9.244980E-7
	126.931782	9.631230E-7	2.656850E-7	1.402330E-7	9.905350E-9	1.114900E-12	14.157299	26.822374	9.277230E-7
	126.932002	9.628000E-7	2.630520E-7	1.384060E-7	9.835910E-9	1.111690E-12	14.071499	26.744043	9.229930E-7
	126.932222	9.658100E-7	2.619770E-7	1.391040E-7	9.938030E-9	1.139380E-12	13.997140	26.361059	9.171880E-7
	126.932431	9.584250E-7	2.626220E-7	1.399640E-7	1.006970E-8	1.096400E-12	13.899520	26.080419	9.189080E-7
	126.932650	9.634670E-7	2.649870E-7	1.422220E-7	1.013290E-8	1.082250E-12	14.035666	26.151151	9.217030E-7
	126.932870	9.628000E-7	2.682120E-7	1.434040E-7	1.008240E-8	1.098330E-12	14.223201	26.602000	9.283680E-7
	126.933090	9.641330E-7	2.680500E-7	1.416310E-7	9.932980E-9	1.107590E-12	14.258662	26.985859	9.309480E-7
	126.933299	9.654770E-7	2.640730E-7	1.388360E-7	9.949110E-9	1.121540E-12	13.954615	26.542374	9.234230E-7
	126.933519	9.607790E-7	2.625140E-7	1.393730E-7	1.000690E-8	1.132290E-12	13.927690	26.233299	9.167580E-7
	126.933738	9.614460E-7	2.634280E-7	1.409860E-7	1.011770E-8	1.126290E-12	13.934590	26.036352	9.204130E-7
	126.933958	9.584250E-7	2.667600E-7	1.430280E-7	1.015060E-8	1.146500E-12	14.090596	26.280220	9.232080E-7
	126.934167	9.590920E-7	2.681580E-7	1.422220E-7	1.000080E-8	1.133160E-12	14.221062	26.813655	9.279380E-7
	126.934387	9.611120E-7	2.654170E-7	1.388360E-7	9.872560E-9	1.121480E-12	14.062817	26.884314	9.279380E-7
	126.934606	9.604460E-7	2.615470E-7	1.381370E-7	9.907500E-9	1.137540E-12	13.942670	26.398890	9.189080E-7
	126.934826	9.617900E-7	2.624070E-7	1.396420E-7	9.983070E-9	1.097140E-12	13.987881	26.285201	9.161130E-7
	126.935035	9.590920E-7	2.636970E-7	1.405560E-7	1.012340E-8	1.112310E-12	13.884268	26.048264	9.182630E-7
	126.935255	9.611120E-7	2.652020E-7	1.417380E-7	1.007810E-8	1.131960E-12	14.063960	26.314682	9.225630E-7
	126.935475	9.564150E-7	2.665990E-7	1.411470E-7	9.924920E-9	1.116560E-12	14.221475	26.861577	9.275080E-7
	126.935694	9.580920E-7	2.635890E-7	1.384060E-7	9.788500E-9	1.117380E-12	14.139654	26.928436	9.236380E-7
	126.935903	9.567480E-7	2.596650E-7	1.378680E-7	9.902660E-9	1.133960E-12	13.922320	26.221742	9.139630E-7
	126.936123	9.570810E-7	2.602030E-7	1.387820E-7	9.974900E-9	1.106980E-12	13.913122	26.085775	9.131030E-7
	126.936343	9.530500E-7	2.618690E-7	1.402870E-7	1.009780E-8	1.133160E-12	13.892828	25.933273	9.165430E-7
	126.936562	9.540600E-7	2.648250E-7	1.421680E-7	1.003770E-8	1.135630E-12	14.163404	26.383036	9.212730E-7
	126.936771	9.513730E-7	2.660080E-7	1.408240E-7	9.824400E-9	1.122480E-12	14.334107	27.076259	9.260030E-7
	126.936991	9.543940E-7	2.625140E-7	1.378140E-7	9.846980E-9	1.125780E-12	13.995560	26.659341	9.217030E-7
	126.937211	9.567480E-7	2.610090E-7	1.384060E-7	9.926960E-9	1.127150E-12	13.942436	26.292944	9.281530E-7
	126.937431	9.537270E-7	2.704150E-7	1.456620E-7	1.037160E-8	1.106710E-12	14.044313	26.072641	9.296580E-7
	126.937650	9.564040E-7	2.713290E-7	1.453390E-7	1.036730E-8	1.125530E-12	14.018983	26.171617	9.251430E-7
	126.937859	9.503630E-7	2.711680E-7	1.451240E-7	1.016470E-8	1.122160E-12	14.277254	26.677423	9.279380E-7
	126.938079	9.483520E-7	2.690180E-7	1.420610E-7	9.962220E-9	1.127790E-12	14.259974	27.003820	9.292280E-7
	126.938299	9.507070E-7	2.647720E-7	1.393190E-7	9.982000E-9	1.123610E-12	13.957023	26.524945	9.234230E-7
	126.938519	9.506960E-7	2.642340E-7	1.406090E-7	1.006190E-8	1.139780E-12	13.974398	26.260845	9.167580E-7
	126.938727	9.506960E-7	2.657390E-7	1.422760E-7	1.016100E-8	1.141430E-12	14.002165	26.152839	9.165430E-7
	126.938947	9.513730E-7	2.670830E-7	1.430820E-7	1.021650E-8	1.124950E-12	14.004992	26.142319	9.197680E-7
	126.939167	9.480190E-7	2.684270E-7	1.425980E-7	9.973290E-9	1.142000E-12	14.297990	26.914589	9.244980E-7
	126.939387	9.483420E-7	2.656850E-7	1.401260E-7	9.885900E-9	1.144040E-12	14.174329	26.875145	9.234230E-7
	126.939595	9.493520E-7	2.617620E-7	1.392120E-7	9.880950E-9	1.151060E-12	14.088929	26.491582	9.128880E-7
	126.939815	9.500290E-7	2.617080E-7	1.402330E-7	9.928570E-9	1.128690E-12	14.124189	26.359083	9.094480E-7
	126.940035	9.476750E-7	2.622450E-7	1.408240E-7	1.009830E-8	1.122240E-12	13.945318	25.969223	9.115980E-7
	126.940255	9.530500E-7	2.637500E-7	1.416310E-7	1.009090E-8	1.123250E-12	14.035517	26.137411	9.158980E-7
	126.940463	9.533940E-7	2.652550E-7	1.412010E-7	9.857730E-9	1.152490E-12	14.323886	26.908325	9.201980E-7
	126.940683	9.537170E-7	2.625680E-7	1.383520E-7	9.783130E-9	1.137690E-12	14.141895	26.838854	9.167580E-7
	126.940903	9.543940E-7	2.581070E-7	1.363630E-7	9.791620E-9	1.119290E-12	13.926500	26.359989	9.083730E-7
	126.941123	9.480080E-7	2.586440E-7	1.377610E-7	9.958460E-9	1.142430E-12	13.833565	25.972289	9.092330E-7
	126.941331	9.496960E-7	2.622450E-7	1.414690E-7	1.010320E-8	1.130900E-12	14.002395	25.956628	9.161130E-7
	126.941551	9.513730E-7	2.676200E-7	1.436730E-7	1.014590E-8	1.085540E-12	14.160695	26.377157	9.234230E-7
	126.941771	9.483520E-7	2.694480E-7	1.431360E-7	1.009390E-8	1.096120E-12	14.180446	26.694142	9.318080E-7
	126.941991	9.550710E-7	2.668140E-7	1.406630E-7	1.005020E-8	1.159650E-12	13.996040	26.548128	9.255730E-7
	126.942199	9.530500E-7	2.648790E-7	1.416310E-7	1.003300E-8	1.122750E-12	14.116515	26.400777	9.150380E-7
	126.942419	9.530500E-7	2.639120E-7	1.416840E-7	1.009790E-8	1.091090E-12	14.031036	26.135335	9.137480E-7
	126.942639	9.446540E-7	2.650940E-7	1.428670E-7	1.016170E-8	1.126700E-12	14.059360	26.087564	9.150380E-7
	126.942859	9.490190E-7	2.663840E-7	1.423290E-7	1.003980E-8	1.114320E-12	14.176478	26.532799	9.201980E-7
	126.943067	9.493520E-7	2.647180E-7	1.396960E-7	9.865470E-9	1.110550E-12	14.160096	26.832781	9.214880E-7
	126.943287	9.527170E-7	2.606870E-7	1.379760E-7	9.840640E-9	1.098680E-12	14.021039	26.490858	9.131030E-7
	126.943507	9.496960E-7	2.603100E-7	1.389970E-7	9.875900E-9	1.138150E-12	14.074363	26.358104	9.068680E-7
	126.943727	9.419670E-7	2.614930E-7	1.394810E-7	1.005390E-8	1.100980E-12	13.873323	26.009111	9.098780E-7
	126.943947	9.426440E-7	2.629980E-7	1.406090E-7	1.011770E-8	1.111360E-12	13.897328	25.993852	9.137480E-7
	126.944155	9.480080E-7	2.646100E-7	1.406090E-7	9.896430E-9	1.096730E-12	14.208053	26.737925	9.186930E-7
	126.944375	9.466750E-7	2.630520E-7	1.384060E-7	9.708200E-9	1.113300E-12	14.256608	27.095857	9.182630E-7
	126.944595	9.476750E-7	2.591280E-7	1.369010E-7	9.872560E-9	1.095000E-12	13.866819	26.247296	9.094480E-7
	126.944815	9.446540E-7	2.584830E-7	1.377610E-7	9.887610E-9	1.098290E-12	13.932689	26.142111	9.049330E-7
	126.945023	9.446540E-7	2.589130E-7	1.393190E-7	9.981030E-9	1.104650E-12	13.958379	25.940509	9.070830E-7
	126.945243	9.439880E-7	2.618690E-7	1.410930E-7	9.969310E-9	1.090650E-12	14.152735	26.267515	9.120280E-7
	126.945463	9.429770E-7	2.638580E-7	1.403940E-7	9.793230E-9	1.126820E-12	14.335822	26.942898	9.176180E-7
	126.945683	9.473420E-7	2.609550E-7	1.366860E-7	9.765710E-9	1.107120E-12	13.996525	26.721559	9.158980E-7
	126.945891	9.466650E-7	2.570850E-7	1.366860E-7	9.818490E-9	1.099180E-12	13.921285	26.183761	9.083730E-7
	126.946111	9.436440E-7	2.591280E-7	1.391580E-7	9.952760E-9	1.102020E-12	13.981850	26.035793	9.083730E-7
	126.946331	9.416340E-7	2.615470E-7	1.407170E-7	1.003300E-8	1.123560E-12	14.025416	26.068673	9.113830E-7
	126.946551	9.372580E-7	2.639650E-7	1.416840E-7	1.001660E-8	1.079360E-12	14.144919	26.352754	9.154680E-7
	126.946759	9.386020E-7	2.641270E-7	1.402870E-7	9.851710E-9	1.138150E-12	14.239863	26.810269	9.191230E-7
	126.946979	9.459980E-7	2.614390E-7	1.382440E-7	9.799890E-9	1.134550E-12	14.106689	26.677748	9.141780E-7
	126.947199	9.416340E-7	2.596650E-7	1.384590E-7	9.900410E-9	1.084680E-12	13.985178	26.227702	9.049330E-7
	126.947419	9.449880E-7	2.597190E-7	1.379760E-7	9.952440E-9	1.106150E-12	13.863535	26.096013	9.051480E-7
	126.947627	9.376020E-7	2.607400E-7	1.389970E-7	1.002230E-8	1.149350E-12	13.868773	26.015984	9.062230E-7
	126.947847	9.355920E-7	2.631050E-7	1.401790E-7	9.901050E-9	1.135070E-12	14.157993	26.573444	9.113830E-7
	126.948067	9.375920E-7	2.623530E-7	1.380290E-7	9.706910E-9	1.132100E-12	14.219664	27.027447	9.135330E-7
	126.948287	9.399460E-7	2.588050E-7	1.359870E-7	9.769040E-9	1.107450E-12	13.920201	26.492368	9.049330E-7
	126.948495	9.413000E-7	2.575690E-7	1.360940E-7	9.876540E-9	1.114610E-12	13.779522	26.078870	8.984830E-7
	126.948715	9.372580E-7	2.585900E-7	1.374380E-7	9.915780E-9	1.113210E-12	13.860533	26.078634	9.004450E-7
	126.948935	9.318830E-7	2.599340E-7	1.388890E-7	9.962540E-9	1.128970E-12	13.941123	26.091137	9.036700E-7
	126.949155	9.365920E-7	2.627290E-7	1.388360E-7	9.821390E-9	1.091770E-12	14.136085	26.750694	9.086090E-7
	126.949363	9.416340E-7	2.618150E-7	1.371690E-7	9.631340E-9	1.144520E-12	14.241943	27.183653	9.093470E-7
	126.949583	9.396130E-7	2.557950E-7	1.340520E-7	9.665630E-9	1.132830E-12	13.868936	26.464390	9.008480E-7
	126.949803	9.369250E-7	2.567090E-7	1.367930E-7	9.785170E-9	1.111810E-12	13.979624	26.234496	8.992360E-7
	126.950012	9.365920E-7	2.586980E-7	1.383520E-7	9.957170E-9	1.143430E-12	13.894711	25.981077	9.016880E-7
	126.950231	9.372580E-7	2.618690E-7	1.392120E-7	1.000520E-8	1.124950E-12	13.913965	26.173290	9.054170E-7
	126.950451	9.396130E-7	2.634820E-7	1.403410E-7	9.876540E-9	1.130490E-12	14.209531	26.677561	9.099190E-7
	126.950660	9.419670E-7	2.622450E-7	1.371690E-7	9.732390E-9	1.124850E-12	14.094071	26.945591	9.115650E-7
	126.950880	9.426330E-7	2.579990E-7	1.355030E-7	9.809680E-9	1.164670E-12	13.813193	26.300450	9.052820E-7
	126.951100	9.419670E-7	2.595040E-7	1.377070E-7	9.860420E-9	1.116290E-12	13.965632	26.317743	9.010500E-7
	126.951308	9.328940E-7	2.594500E-7	1.389970E-7	9.979960E-9	1.121070E-12	13.927611	25.997098	9.036700E-7
	126.951528	9.342380E-7	2.622450E-7	1.400720E-7	9.975660E-9	1.077930E-12	14.041377	26.288486	9.061560E-7
	126.951748	9.349150E-7	2.635350E-7	1.401790E-7	9.851390E-9	1.101480E-12	14.229363	26.751047	9.115650E-7
	126.951968	9.402900E-7	2.607400E-7	1.364170E-7	9.691750E-9	1.086850E-12	14.075580	26.903294	9.103210E-7
	126.952176	9.392790E-7	2.581070E-7	1.360410E-7	9.723780E-9	1.105010E-12	13.990547	26.543895	9.022600E-7
	126.952396	9.376020E-7	2.570850E-7	1.370620E-7	9.861810E-9	1.111710E-12	13.898260	26.068744	8.985970E-7
	126.952616	9.369250E-7	2.586440E-7	1.377610E-7	9.963620E-9	1.089410E-12	13.826400	25.958838	9.013510E-7
	126.952824	9.396130E-7	2.617620E-7	1.402330E-7	9.949430E-9	1.117360E-12	14.094576	26.309246	9.052150E-7
	126.953044	9.342380E-7	2.618150E-7	1.381910E-7	9.800320E-9	1.113380E-12	14.100662	26.714944	9.091790E-7
	126.953264	9.426330E-7	2.597730E-7	1.359870E-7	9.609730E-9	1.136150E-12	14.150970	27.032289	9.072650E-7
	126.953484	9.365920E-7	2.553650E-7	1.341060E-7	9.755930E-9	1.107840E-12	13.746101	26.175362	8.982270E-7
	126.953692	9.359250E-7	2.568700E-7	1.366860E-7	9.778830E-9	1.122200E-12	13.977746	26.267969	8.961780E-7
	126.953912	9.359150E-7	2.578920E-7	1.371690E-7	9.911160E-9	1.112260E-12	13.839853	26.020365	8.998060E-7
	126.954132	9.308840E-7	2.605790E-7	1.386210E-7	9.928360E-9	1.116770E-12	13.962125	26.245926	9.043420E-7
	126.954340	9.352480E-7	2.618690E-7	1.379220E-7	9.717230E-9	1.112640E-12	14.193551	26.948935	9.081710E-7
	126.954560	9.339040E-7	2.573000E-7	1.347510E-7	9.646060E-9	1.136180E-12	13.969538	26.674103	9.066930E-7
	126.954780	9.369250E-7	2.556340E-7	1.345360E-7	9.757220E-9	1.116670E-12	13.788354	26.199471	8.990010E-7
	126.954988	9.349150E-7	2.575150E-7	1.366320E-7	9.888900E-9	1.078260E-12	13.816704	26.040813	8.996050E-7
	126.955208	9.278630E-7	2.581600E-7	1.374380E-7	9.952440E-9	1.074600E-12	13.809478	25.939368	9.036700E-7
	126.955428	9.345710E-7	2.621380E-7	1.394270E-7	9.926210E-9	1.092240E-12	14.046348	26.408670	9.080030E-7
	126.955648	9.328940E-7	2.621380E-7	1.381370E-7	9.765060E-9	1.080110E-12	14.146047	26.844484	9.108250E-7
	126.955856	9.328940E-7	2.589130E-7	1.353960E-7	9.721310E-9	1.132390E-12	13.927753	26.633550	9.073650E-7
	126.956076	9.349150E-7	2.559030E-7	1.357180E-7	9.757000E-9	1.101180E-12	13.909808	26.227631	8.989670E-7
	126.956296	9.308730E-7	2.579450E-7	1.371690E-7	9.834190E-9	1.088720E-12	13.948175	26.229410	8.990010E-7
	126.956505	9.285290E-7	2.589670E-7	1.384060E-7	9.981030E-9	1.107590E-12	13.866906	25.945919	9.010170E-7
	126.956725	9.322270E-7	2.613850E-7	1.387280E-7	9.870520E-9	1.092550E-12	14.054781	26.481381	9.054170E-7
	126.956944	9.275190E-7	2.620840E-7	1.379220E-7	9.735400E-9	1.092820E-12	14.167060	26.920722	9.082050E-7
	126.957153	9.281960E-7	2.575690E-7	1.344820E-7	9.686370E-9	1.084830E-12	13.883632	26.590869	9.026960E-7
	126.957373	9.352480E-7	2.562790E-7	1.344820E-7	9.723360E-9	1.092120E-12	13.830816	26.357041	8.939950E-7
	126.957593	9.281850E-7	2.560640E-7	1.357180E-7	9.856650E-9	1.136200E-12	13.769181	25.978806	8.944990E-7
	126.957801	9.271860E-7	2.585900E-7	1.369010E-7	9.932010E-9	1.104390E-12	13.783816	26.036019	8.967170E-7
	126.958021	9.292070E-7	2.614930E-7	1.387820E-7	9.852350E-9	1.108690E-12	14.086182	26.541181	9.016210E-7
	126.958241	9.275300E-7	2.589130E-7	1.352880E-7	9.592740E-9	1.084130E-12	14.103166	26.990516	9.037710E-7
	126.958461	9.295290E-7	2.563870E-7	1.339980E-7	9.608120E-9	1.122120E-12	13.946329	26.684409	8.965830E-7
	126.958669	9.238320E-7	2.530540E-7	1.338370E-7	9.684120E-9	1.126190E-12	13.820254	26.130820	8.903670E-7
	126.958889	9.251750E-7	2.556340E-7	1.353960E-7	9.782160E-9	1.093960E-12	13.841115	26.132674	8.923150E-7
	126.959109	9.278520E-7	2.574080E-7	1.380830E-7	9.933630E-9	1.103300E-12	13.900558	25.912783	8.953050E-7
	126.959317	9.281960E-7	2.604720E-7	1.376530E-7	9.866760E-9	1.110050E-12	13.951186	26.398939	9.014530E-7
	126.959537	9.291960E-7	2.612240E-7	1.371690E-7	9.728730E-9	1.157880E-12	14.099374	26.850781	9.048790E-7
	126.959757	9.281960E-7	2.575690E-7	1.348580E-7	9.757330E-9	1.132630E-12	13.821199	26.397488	8.987990E-7
	126.959965	9.251650E-7	2.571930E-7	1.346970E-7	9.810000E-9	1.144910E-12	13.730581	26.217431	8.928190E-7
	126.960185	9.268520E-7	2.592350E-7	1.373840E-7	9.916210E-9	1.137250E-12	13.854487	26.142548	8.953390E-7
	126.960405	9.241650E-7	2.598270E-7	1.386210E-7	9.974900E-9	1.110510E-12	13.896981	26.048081	8.976900E-7
	126.960625	9.228210E-7	2.620300E-7	1.383520E-7	9.826450E-9	1.108510E-12	14.079551	26.665785	9.016540E-7
	126.960833	9.281960E-7	2.612780E-7	1.372770E-7	9.682720E-9	1.095640E-12	14.177524	26.983947	9.031320E-7
	126.961053	9.302170E-7	2.560100E-7	1.347510E-7	9.713900E-9	1.109750E-12	13.871977	26.355017	8.954060E-7
	126.961273	9.218110E-7	2.562790E-7	1.354490E-7	9.744210E-9	1.100190E-12	13.900460	26.300644	8.901310E-7
	126.961481	9.271860E-7	2.577840E-7	1.379220E-7	9.891380E-9	1.114580E-12	13.943656	26.061480	8.928860E-7
	126.961701	9.218110E-7	2.586980E-7	1.379760E-7	9.919970E-9	1.135170E-12	13.908913	26.078506	8.964810E-7
	126.961921	9.275190E-7	2.623530E-7	1.384060E-7	9.792910E-9	1.104620E-12	14.133286	26.790096	9.048460E-7
	126.962130	9.281850E-7	2.616540E-7	1.374380E-7	9.721310E-9	1.123260E-12	14.137807	26.915508	9.060210E-7
	126.962350	9.291960E-7	2.615470E-7	1.388360E-7	1.004880E-8	1.144760E-12	13.816177	26.027685	9.071640E-7
	126.962569	9.281960E-7	2.628900E-7	1.382440E-7	9.985010E-9	1.106700E-12	13.845154	26.328466	8.959440E-7
	126.962789	9.275190E-7	2.606330E-7	1.391040E-7	1.001230E-8	1.145120E-12	13.893311	26.031282	8.971870E-7
	126.962998	9.255090E-7	2.614390E-7	1.387820E-7	1.004270E-8	1.095250E-12	13.819192	26.032740	9.084060E-7
	126.963218	9.255090E-7	2.675130E-7	1.398030E-7	9.882890E-9	1.160500E-12	14.145963	27.068297	9.066600E-7
	126.963437	9.258420E-7	2.610630E-7	1.360940E-7	9.762590E-9	1.148170E-12	13.940358	26.741162	9.055180E-7
	126.963646	9.302060E-7	2.585900E-7	1.348040E-7	9.791300E-9	1.089900E-12	13.767733	26.410180	8.967170E-7
	126.963866	9.265080E-7	2.586440E-7	1.371160E-7	9.815700E-9	1.094430E-12	13.969050	26.350031	8.958090E-7
	126.964086	9.244980E-7	2.591280E-7	1.375990E-7	1.000720E-8	1.075360E-12	13.750000	25.894156	8.995720E-7
	126.964294	9.241650E-7	2.633740E-7	1.405560E-7	1.006120E-8	1.121690E-12	13.970103	26.177196	9.142180E-7
	126.964514	9.241650E-7	2.692330E-7	1.417920E-7	1.022890E-8	1.102720E-12	13.861901	26.320817	9.234910E-7
	126.964734	9.322270E-7	2.692870E-7	1.404480E-7	1.000750E-8	1.118580E-12	14.034274	26.908519	9.102540E-7
	126.964954	9.285290E-7	2.598800E-7	1.367930E-7	9.884280E-9	1.133830E-12	13.839450	26.292254	8.958100E-7
	126.965162	9.204670E-7	2.576230E-7	1.356110E-7	9.861810E-9	1.076020E-12	13.751127	26.123298	8.916100E-7
	126.965382	9.241650E-7	2.588050E-7	1.375460E-7	9.941690E-9	1.115250E-12	13.835273	26.032294	8.937260E-7
	126.965602	9.251750E-7	2.593430E-7	1.380830E-7	9.854400E-9	1.091370E-12	14.012319	26.317483	8.967840E-7
	126.965810	9.181230E-7	2.602030E-7	1.363090E-7	9.710890E-9	1.096360E-12	14.036715	26.794969	9.008150E-7
	126.966030	9.228100E-7	2.570320E-7	1.341060E-7	9.619190E-9	1.116390E-12	13.941507	26.720753	8.975900E-7
	126.966250	9.211330E-7	2.531620E-7	1.330840E-7	9.668640E-9	1.082980E-12	13.764500	26.183827	8.890560E-7
	126.966458	9.228210E-7	2.550430E-7	1.353960E-7	9.782480E-9	1.086010E-12	13.840662	26.071405	8.887880E-7
	126.966678	9.198000E-7	2.563330E-7	1.370620E-7	9.850740E-9	1.146310E-12	13.913879	26.021700	8.915760E-7
	126.966898	9.167690E-7	2.581070E-7	1.374920E-7	9.794950E-9	1.079090E-12	14.037029	26.351028	8.966830E-7
	126.967118	9.214670E-7	2.591280E-7	1.365780E-7	9.617790E-9	1.096190E-12	14.200560	26.942572	9.013190E-7
	126.967326	9.211330E-7	2.556880E-7	1.347510E-7	9.583930E-9	1.097220E-12	14.060099	26.678826	8.958420E-7
	126.967546	9.174460E-7	2.527850E-7	1.344280E-7	9.716260E-9	1.070230E-12	13.835365	26.016698	8.871750E-7
	126.967766	9.187900E-7	2.545590E-7	1.361480E-7	9.744860E-9	1.109760E-12	13.971263	26.122387	8.865370E-7
	126.967975	9.211440E-7	2.555800E-7	1.365780E-7	9.847300E-9	1.093110E-12	13.869589	25.954323	8.891580E-7
	126.968194	9.187900E-7	2.588590E-7	1.379760E-7	9.807640E-9	1.123810E-12	14.068216	26.393607	8.951710E-7
	126.968414	9.134150E-7	2.585900E-7	1.357720E-7	9.673260E-9	1.082060E-12	14.035806	26.732456	8.990330E-7
	126.968623	9.194560E-7	2.563330E-7	1.336760E-7	9.650470E-9	1.101030E-12	13.851761	26.561712	8.950700E-7
	126.968843	9.177790E-7	2.557420E-7	1.355570E-7	9.724970E-9	1.104040E-12	13.939066	26.297459	8.884520E-7
	126.969063	9.147590E-7	2.554190E-7	1.358790E-7	9.849340E-9	1.092870E-12	13.795747	25.932601	8.879810E-7
	126.969282	9.177790E-7	2.572470E-7	1.364170E-7	9.860090E-9	1.102760E-12	13.835269	26.089721	8.898630E-7
	126.969491	9.177790E-7	2.607400E-7	1.384060E-7	9.835260E-9	1.092300E-12	14.072429	26.510738	8.959430E-7
	126.969711	9.137480E-7	2.592890E-7	1.366860E-7	9.616500E-9	1.117060E-12	14.213695	26.962928	8.979590E-7
	126.969931	9.164360E-7	2.557950E-7	1.335680E-7	9.635640E-9	1.143610E-12	13.861871	26.546758	8.907020E-7
	126.970139	9.157580E-7	2.540750E-7	1.345890E-7	9.755930E-9	1.130020E-12	13.795609	26.043135	8.840180E-7
	126.970359	9.134150E-7	2.548280E-7	1.347510E-7	9.815370E-9	1.146050E-12	13.728571	25.962139	8.848920E-7
	126.970579	9.137480E-7	2.579450E-7	1.377610E-7	9.861810E-9	1.105050E-12	13.969140	26.155949	8.886200E-7
	126.970787	9.107270E-7	2.592890E-7	1.382440E-7	9.745500E-9	1.140250E-12	14.185419	26.606023	8.939620E-7
	126.971007	9.184570E-7	2.575690E-7	1.342130E-7	9.557700E-9	1.116580E-12	14.042395	26.948848	8.953720E-7
	126.971227	9.167690E-7	2.546670E-7	1.330840E-7	9.597690E-9	1.133220E-12	13.866253	26.534197	8.878800E-7
	126.971435	9.140920E-7	2.530000E-7	1.338370E-7	9.634670E-9	1.127790E-12	13.891187	26.259332	8.810950E-7
	126.971655	9.120600E-7	2.541830E-7	1.350190E-7	9.799680E-9	1.088660E-12	13.777899	25.937888	8.845890E-7
	126.971875	9.171020E-7	2.576770E-7	1.377610E-7	9.841600E-9	1.105020E-12	13.997826	26.182430	8.879830E-7
	126.972095	9.110610E-7	2.581600E-7	1.371690E-7	9.673260E-9	1.127600E-12	14.180225	26.688004	8.914760E-7
	126.972303	9.120710E-7	2.558490E-7	1.329770E-7	9.548670E-9	1.119110E-12	13.926233	26.794203	8.932560E-7
	126.972523	9.161020E-7	2.546130E-7	1.332460E-7	9.669610E-9	1.123180E-12	13.779873	26.331258	8.876120E-7
	126.972743	9.161020E-7	2.543980E-7	1.350730E-7	9.724110E-9	1.133730E-12	13.890526	26.161572	8.834460E-7
	126.972951	9.127380E-7	2.545050E-7	1.355570E-7	9.848270E-9	1.126280E-12	13.764550	25.842610	8.884860E-7
	126.973171	9.144250E-7	2.587520E-7	1.375460E-7	9.868910E-9	1.120600E-12	13.937304	26.218904	8.912740E-7
	126.973391	9.113940E-7	2.609020E-7	1.380830E-7	9.764960E-9	1.095670E-12	14.140662	26.718184	8.955400E-7
	126.973611	9.154250E-7	2.574080E-7	1.339980E-7	9.657890E-9	1.114570E-12	13.874459	26.652613	8.953050E-7
	126.973819	9.211440E-7	2.545590E-7	1.326540E-7	9.634670E-9	1.117310E-12	13.768401	26.421144	8.869740E-7
	126.974039	9.124040E-7	2.548280E-7	1.350190E-7	9.689170E-9	1.084050E-12	13.935043	26.300292	8.841860E-7
	126.974259	9.097170E-7	2.548820E-7	1.360410E-7	9.845910E-9	1.093690E-12	13.817006	25.887094	8.865030E-7
	126.974468	9.144150E-7	2.575690E-7	1.363630E-7	9.876220E-9	1.094430E-12	13.807206	26.079715	9.022250E-7
	126.974688	9.127380E-7	2.662770E-7	1.401790E-7	9.914810E-9	1.089980E-12	14.138345	26.856490	9.025620E-7
	126.974907	9.137480E-7	2.601490E-7	1.349120E-7	9.692070E-9	1.112240E-12	13.919833	26.841428	8.977910E-7
	126.975116	9.140810E-7	2.562790E-7	1.338910E-7	9.691860E-9	1.092340E-12	13.814789	26.442706	8.972530E-7
	126.975336	9.134150E-7	2.634820E-7	1.398570E-7	1.006730E-8	1.129540E-12	13.892205	26.172062	8.960780E-7
	126.975556	9.117380E-7	2.616540E-7	1.382440E-7	1.004980E-8	1.111950E-12	13.755896	26.035742	8.903670E-7
	126.975775	9.137480E-7	2.602030E-7	1.374380E-7	9.839240E-9	1.085910E-12	13.968355	26.445437	8.925170E-7
	126.975984	9.113940E-7	2.607400E-7	1.367930E-7	9.689060E-9	1.076730E-12	14.118294	26.910763	8.975550E-7
	126.976204	9.080290E-7	2.567630E-7	1.332990E-7	9.582210E-9	1.136130E-12	13.911091	26.795802	8.950700E-7
	126.976424	9.097170E-7	2.539140E-7	1.337290E-7	9.624240E-9	1.085340E-12	13.895019	26.382759	8.861350E-7
	126.976632	9.137480E-7	2.544520E-7	1.352340E-7	9.742490E-9	1.119700E-12	13.880846	26.117758	8.848240E-7
	126.976852	9.080400E-7	2.554190E-7	1.360940E-7	9.860740E-9	1.082120E-12	13.801601	25.902620	8.887540E-7
	126.977072	9.097170E-7	2.592350E-7	1.371160E-7	9.891700E-9	1.094800E-12	13.861722	26.207325	8.992020E-7
	126.977280	9.134150E-7	2.636430E-7	1.388890E-7	9.810430E-9	1.085980E-12	14.157280	26.873746	9.006800E-7
	126.977500	9.080400E-7	2.583220E-7	1.351810E-7	9.684980E-9	1.087430E-12	13.957799	26.672435	8.946670E-7
	126.977720	9.124040E-7	2.539680E-7	1.337290E-7	9.691110E-9	1.045620E-12	13.799142	26.206286	8.848240E-7
	126.977940	9.060190E-7	2.555270E-7	1.351810E-7	9.761620E-9	1.095220E-12	13.848214	26.176700	8.831440E-7
	126.978148	9.083730E-7	2.561180E-7	1.364710E-7	9.803660E-9	1.113450E-12	13.920413	26.124733	8.854960E-7
	126.978368	9.043420E-7	2.575690E-7	1.363090E-7	9.804630E-9	1.139430E-12	13.902513	26.270140	8.892250E-7
	126.978588	9.066850E-7	2.592350E-7	1.360940E-7	9.628000E-9	1.143990E-12	14.135231	26.925114	8.924160E-7
	126.978796	9.097170E-7	2.542370E-7	1.321170E-7	9.605110E-9	1.079850E-12	13.754866	26.468932	8.868400E-7
	126.979016	9.070290E-7	2.531080E-7	1.327620E-7	9.612850E-9	1.118000E-12	13.810889	26.330173	8.783400E-7
	126.979236	9.033310E-7	2.535380E-7	1.344280E-7	9.754210E-9	1.084290E-12	13.781536	25.992674	8.782390E-7
	126.979444	9.066960E-7	2.546670E-7	1.347510E-7	9.813980E-9	1.099380E-12	13.730515	25.949411	8.807590E-7
	126.979664	9.023210E-7	2.573000E-7	1.370080E-7	9.717330E-9	1.109430E-12	14.099346	26.478467	8.855970E-7
	126.979884	9.040090E-7	2.560100E-7	1.337290E-7	9.507390E-9	1.138460E-12	14.065795	26.927474	8.891240E-7
	126.980093	9.063520E-7	2.539140E-7	1.324390E-7	9.516740E-9	1.124530E-12	13.916425	26.680775	8.828420E-7
	126.980312	9.046750E-7	2.514950E-7	1.329770E-7	9.570490E-9	1.121890E-12	13.894482	26.278174	8.757880E-7
	126.980532	9.039980E-7	2.521940E-7	1.333530E-7	9.740880E-9	1.120330E-12	13.690036	25.890269	8.775680E-7
	126.980752	9.013210E-7	2.553120E-7	1.359330E-7	9.793550E-9	1.135660E-12	13.879849	26.069403	8.805910E-7
	126.980961	9.026650E-7	2.573000E-7	1.370620E-7	9.655520E-9	1.126790E-12	14.195196	26.647969	8.853620E-7
	126.981181	9.019880E-7	2.549350E-7	1.334070E-7	9.500290E-9	1.126680E-12	14.042413	26.834444	8.879480E-7
	126.981400	9.060190E-7	2.520330E-7	1.312570E-7	9.505020E-9	1.103090E-12	13.809229	26.515778	8.814650E-7
	126.981609	9.050080E-7	2.521940E-7	1.335680E-7	9.632730E-9	1.102410E-12	13.866059	26.180948	8.766610E-7
	126.981829	8.979560E-7	2.525170E-7	1.352340E-7	9.755280E-9	1.113990E-12	13.862647	25.885162	8.810950E-7
	126.982049	9.352480E-7	2.567630E-7	1.375990E-7	9.791830E-9	1.102540E-12	14.052429	26.222167	8.855960E-7
	126.982269	9.368610E-7	2.588590E-7	1.370080E-7	9.659930E-9	1.101710E-12	14.183126	26.797192	8.923150E-7
	126.982500	9.368070E-7	2.552580E-7	1.341590E-7	9.641330E-9	1.145680E-12	13.914989	26.475393	8.852610E-7
	126.982720	9.352480E-7	2.540750E-7	1.346970E-7	9.738840E-9	1.117580E-12	13.830908	26.088836	8.797850E-7
	126.982951	9.355170E-7	2.554190E-7	1.357720E-7	9.848060E-9	1.111520E-12	13.786675	25.935971	8.832110E-7
	126.983171	9.349790E-7	2.578920E-7	1.366860E-7	9.778500E-9	1.106180E-12	13.978218	26.373370	8.893250E-7
	126.983403	9.359470E-7	2.553120E-7	1.334610E-7	9.548670E-9	1.113020E-12	13.976920	26.737965	8.897950E-7
	126.983634	9.328290E-7	2.511190E-7	1.333530E-7	9.670250E-9	1.112920E-12	13.790026	25.968201	8.785080E-7
	126.983854	9.323460E-7	2.525700E-7	1.350190E-7	9.779150E-9	1.115510E-12	13.806824	25.827398	8.795840E-7
	126.984086	9.323990E-7	2.553650E-7	1.370620E-7	9.774740E-9	1.090530E-12	14.022061	26.124992	8.844210E-7
	126.984306	9.341190E-7	2.573000E-7	1.360940E-7	9.565440E-9	1.097810E-12	14.227678	26.898919	8.895610E-7
	126.984537	9.331520E-7	2.522480E-7	1.329230E-7	9.532540E-9	1.121810E-12	13.944132	26.461782	8.821020E-7
	126.984757	9.305180E-7	2.514420E-7	1.336760E-7	9.654880E-9	1.098300E-12	13.845434	26.042996	8.752160E-7
	126.984988	9.304640E-7	2.529470E-7	1.351270E-7	9.786140E-9	1.102060E-12	13.807998	25.847474	8.794490E-7
	126.985208	9.315390E-7	2.556340E-7	1.357180E-7	9.664230E-9	1.068810E-12	14.043333	26.451564	8.866040E-7
	126.985440	9.313780E-7	2.527320E-7	1.321710E-7	9.483090E-9	1.097890E-12	13.937546	26.650807	8.861680E-7
	126.985660	9.281530E-7	2.487000E-7	1.326540E-7	9.617900E-9	1.129920E-12	13.792408	25.858036	8.758210E-7
	126.985891	9.278840E-7	2.509040E-7	1.348040E-7	9.707980E-9	1.101400E-12	13.885896	25.845129	8.779040E-7
	126.986111	9.275620E-7	2.545590E-7	1.372230E-7	9.770980E-9	1.102910E-12	14.043934	26.052556	8.832450E-7
	126.986343	9.293890E-7	2.564400E-7	1.359330E-7	9.592420E-9	1.096230E-12	14.170877	26.733608	8.894930E-7
	126.986574	9.282610E-7	2.520330E-7	1.329770E-7	9.607790E-9	1.115920E-12	13.840540	26.232151	8.837830E-7
	126.986794	9.254660E-7	2.521940E-7	1.346430E-7	9.653160E-9	1.108030E-12	13.948075	26.125538	8.782730E-7
	126.987025	9.243370E-7	2.538600E-7	1.358790E-7	9.813660E-9	1.079660E-12	13.845905	25.868025	8.810950E-7
	126.987245	9.234770E-7	2.561720E-7	1.364710E-7	9.706910E-9	1.078910E-12	14.059160	26.390685	8.858310E-7
	126.987477	9.233160E-7	2.539680E-7	1.335680E-7	9.537600E-9	1.102710E-12	14.004362	26.628083	8.864700E-7
	126.987697	9.196610E-7	2.507430E-7	1.335140E-7	9.645420E-9	1.129330E-12	13.842217	25.996069	8.752500E-7
	126.987928	9.198220E-7	2.523550E-7	1.349120E-7	9.787530E-9	1.129690E-12	13.784070	25.783318	8.758880E-7
	126.988148	9.205740E-7	2.554190E-7	1.365240E-7	9.766680E-9	1.093740E-12	13.978547	26.152080	8.799520E-7
	126.988380	9.237460E-7	2.563330E-7	1.345360E-7	9.525880E-9	1.135870E-12	14.123210	26.909115	8.844210E-7
	126.988600	9.217570E-7	2.511190E-7	1.312030E-7	9.494270E-9	1.124370E-12	13.819177	26.449532	8.760550E-7
	126.988831	9.193920E-7	2.499370E-7	1.319020E-7	9.630690E-9	1.116320E-12	13.696007	25.952138	8.724270E-7
	126.989063	9.193920E-7	2.532150E-7	1.344280E-7	9.795920E-9	1.106820E-12	13.722856	25.849027	8.751150E-7
	126.989282	9.203060E-7	2.546130E-7	1.350730E-7	9.594360E-9	1.113740E-12	14.078375	26.537778	8.816330E-7
	126.989514	9.212190E-7	2.518720E-7	1.324390E-7	9.468040E-9	1.136640E-12	13.988006	26.602338	8.831110E-7
	126.989734	9.207890E-7	2.555270E-7	1.375460E-7	9.861710E-9	1.153470E-12	13.947480	25.911024	8.833120E-7
	126.989965	9.215960E-7	2.568700E-7	1.379220E-7	9.912770E-9	1.123130E-12	13.913568	25.913039	8.779030E-7
	126.990185	9.205210E-7	2.577300E-7	1.381370E-7	9.818380E-9	1.145900E-12	14.069225	26.249748	8.952720E-7
	126.990417	9.254660E-7	2.640190E-7	1.392120E-7	9.822150E-9	1.122500E-12	14.173272	26.879960	8.932560E-7
	126.990637	9.235310E-7	2.570850E-7	1.346430E-7	9.717230E-9	1.123800E-12	13.856109	26.456614	8.816330E-7
	126.990868	9.213810E-7	2.537530E-7	1.342130E-7	9.682400E-9	1.120600E-12	13.861543	26.207655	8.744440E-7
	126.991088	9.212730E-7	2.541830E-7	1.355570E-7	9.829570E-9	1.095540E-12	13.790736	25.859015	8.784080E-7
	126.991319	9.221870E-7	2.564400E-7	1.363090E-7	9.726690E-9	1.140240E-12	14.013914	26.364570	8.837490E-7
	126.991539	9.233160E-7	2.539140E-7	1.329230E-7	9.551680E-9	1.132940E-12	13.916191	26.583177	8.841860E-7
	126.991771	9.196070E-7	2.503130E-7	1.328690E-7	9.612850E-9	1.105930E-12	13.822019	26.039416	8.740060E-7
	126.992002	9.194460E-7	2.516570E-7	1.339980E-7	9.736040E-9	1.115570E-12	13.763091	25.847983	8.740080E-7
	126.992222	9.188540E-7	2.539680E-7	1.357180E-7	9.741740E-9	1.105540E-12	13.931597	26.070086	8.788440E-7
	126.992454	9.207360E-7	2.548280E-7	1.345360E-7	9.543620E-9	1.107770E-12	14.096957	26.701398	8.841520E-7
	126.992674	9.197680E-7	2.509040E-7	1.326010E-7	9.518140E-9	1.145990E-12	13.931398	26.360612	8.767280E-7
	126.992905	9.177790E-7	2.502590E-7	1.342130E-7	9.614570E-9	1.103520E-12	13.959335	26.029141	8.714540E-7
	126.993125	9.187470E-7	2.527850E-7	1.361480E-7	9.773670E-9	1.107250E-12	13.930079	25.863877	8.751150E-7
	126.993356	9.203060E-7	2.553120E-7	1.364710E-7	9.575220E-9	1.090780E-12	14.252518	26.663826	8.814310E-7
	126.993576	9.208430E-7	2.521940E-7	1.322240E-7	9.410530E-9	1.093400E-12	14.050643	26.799128	8.799530E-7
	126.993808	9.173490E-7	2.482700E-7	1.315790E-7	9.522760E-9	1.100950E-12	13.817318	26.071223	8.686660E-7
	126.994028	9.172960E-7	2.492920E-7	1.329770E-7	9.696160E-9	1.069990E-12	13.714398	25.710384	8.710500E-7
	126.994259	9.175640E-7	2.520870E-7	1.346430E-7	9.660580E-9	1.082330E-12	13.937362	26.094396	8.771980E-7
	126.994491	9.183710E-7	2.525700E-7	1.330840E-7	9.458580E-9	1.100240E-12	14.070188	26.702740	8.812290E-7
	126.994711	9.164890E-7	2.474100E-7	1.300740E-7	9.460950E-9	1.120580E-12	13.748514	26.150651	8.728650E-7
	126.994942	9.139630E-7	2.477330E-7	1.322780E-7	9.592740E-9	1.084700E-12	13.789387	25.825051	8.680270E-7
	126.995162	9.138560E-7	2.504200E-7	1.348040E-7	9.681750E-9	1.119210E-12	13.923516	25.865159	8.729320E-7
	126.995394	9.153070E-7	2.537530E-7	1.355030E-7	9.577260E-9	1.119730E-12	14.148410	26.495365	8.799870E-7
	126.995613	9.165430E-7	2.523550E-7	1.329230E-7	9.480510E-9	1.085720E-12	14.020659	26.618294	8.809610E-7
	126.995845	9.140170E-7	2.498830E-7	1.324930E-7	9.598010E-9	1.124410E-12	13.804216	26.034876	8.717900E-7
	126.996065	9.148770E-7	2.512270E-7	1.336220E-7	9.697130E-9	1.103100E-12	13.779541	25.907356	8.729650E-7
	126.996296	9.140170E-7	2.535380E-7	1.349120E-7	9.720020E-9	1.091770E-12	13.879807	26.084103	8.772660E-7
	126.996516	9.146080E-7	2.536450E-7	1.327080E-7	9.456000E-9	1.106480E-12	14.034264	26.823710	8.808940E-7
	126.996748	9.119210E-7	2.483780E-7	1.300210E-7	9.469330E-9	1.083610E-12	13.730750	26.229733	8.733010E-7
	126.996968	9.095560E-7	2.483240E-7	1.322240E-7	9.607040E-9	1.118510E-12	13.763240	25.848128	8.683960E-7
	126.997199	9.084270E-7	2.505820E-7	1.341060E-7	9.723360E-9	1.114030E-12	13.792146	25.771133	8.716890E-7
	126.997419	9.098780E-7	2.535920E-7	1.355030E-7	9.567160E-9	1.106360E-12	14.163346	26.506508	8.777360E-7
	126.997650	9.102540E-7	2.506890E-7	1.319560E-7	9.416340E-9	1.139080E-12	14.013513	26.622764	8.762580E-7
	126.997882	9.075130E-7	2.481090E-7	1.319560E-7	9.465030E-9	1.120880E-12	13.941424	26.213229	8.657760E-7
	126.998102	9.071910E-7	2.494530E-7	1.334610E-7	9.659500E-9	1.122800E-12	13.816554	25.824629	8.673550E-7
	126.998333	9.076740E-7	2.530000E-7	1.351810E-7	9.658860E-9	1.087010E-12	13.995544	26.193567	8.720250E-7
	126.998553	9.096630E-7	2.527320E-7	1.322780E-7	9.404830E-9	1.094120E-12	14.064901	26.872575	8.758540E-7
	126.998785	9.068680E-7	2.475720E-7	1.291610E-7	9.391400E-9	1.084580E-12	13.753115	26.361565	8.654740E-7
	126.999005	9.056320E-7	2.466580E-7	1.308810E-7	9.502550E-9	1.082930E-12	13.773250	25.957033	8.626860E-7
	126.999236	9.060620E-7	2.493990E-7	1.330840E-7	9.665840E-9	1.127900E-12	13.768488	25.802103	8.666500E-7
	126.999456	9.075670E-7	2.523550E-7	1.338370E-7	9.554470E-9	1.122680E-12	14.007789	26.412245	8.740060E-7
	126.999687	9.083190E-7	2.494530E-7	1.303970E-7	9.430100E-9	1.109440E-12	13.827743	26.452848	8.735700E-7
